scanname Analyse037
timestamp 2017-02-10 20:47:26
ccdbias 898.923340
ccdgain 3.473401
sigmaread 8.960639
laserwavenum -0.591986
wavenumcorrection -0.069022
scancount 1
totalexposurems 10000
singleexposurems 10000
measurementstate Unknown
scanmode Manual
snr 296.653656 9.958471 8.512356
replacelist 5
672 51570.000000 30870.000000
754 49550.000000 17506.000000
858 43927.000000 15599.000000
889 41880.000000 21309.000000
948 39350.000000 19466.000000
peaks 65
278.226868 0.720784 0.000000 1.411526 0.000183
284.337799 0.720053 0.000000 0.759995 0.000059
293.299805 0.722650 0.000000 0.650041 0.000029
303.197662 0.723477 0.000000 0.119639 0.000021
330.447968 0.740843 0.000000 0.719038 0.000131
342.724304 0.744602 0.000000 0.740816 0.000034
349.605560 0.747719 0.000000 0.653758 0.000024
360.622803 0.748768 0.000000 0.220812 0.000015
386.247314 0.752036 0.000000 1.544966 0.000322
460.410278 0.767306 0.000000 0.236852 0.000040
486.576965 0.778672 0.000000 0.563446 0.000061
534.777527 0.782870 0.000000 0.545433 0.000136
560.399719 0.823565 0.000000 1.117086 0.000208
571.300964 0.831113 0.000000 0.538260 0.000145
582.511963 0.823218 0.000000 0.545563 0.000096
660.697266 0.855877 0.000000 0.928403 0.000140
673.180420 0.851781 0.000000 1.190736 0.000244
680.273193 0.852305 0.000000 0.363214 0.000043
715.752380 0.873030 0.000000 5.525081 0.001163
724.418579 0.854746 0.000000 1.283811 0.000054
741.895935 0.878765 0.000000 1.180100 0.000125
757.156067 0.903646 0.000000 5.925034 0.000680
779.262756 0.905319 0.000000 8.280879 0.001295
832.546997 0.904367 0.000000 0.428271 0.000167
842.782166 0.909177 0.000000 1.156070 0.000057
853.264832 0.934338 0.000000 1.080310 0.000282
868.873230 0.930467 0.000000 0.742320 0.000153
937.595093 1.004410 0.000000 0.831559 0.000433
954.290527 0.982855 0.000000 3.432350 0.001050
1013.677551 1.024243 0.000000 2.006868 0.000773
1019.964722 1.025827 0.000000 1.045207 0.000158
1026.940308 1.037575 0.000000 0.633643 0.000261
1044.240723 1.033609 0.000000 4.061601 0.001333
1104.402100 1.050384 0.000000 2.265733 0.000624
1117.696411 1.089256 0.000000 2.279781 0.000654
1134.746826 1.067637 0.000000 2.098645 0.000902
1150.250366 1.051303 0.000000 2.701141 0.001064
1174.388550 1.076229 0.000000 1.432306 0.000485
1185.819214 1.079725 0.000000 0.937201 0.000075
1210.993530 1.148093 0.000000 0.796029 0.000247
1225.067505 1.156229 0.000000 0.894997 0.000191
1232.439209 1.144812 0.000000 1.252505 0.000337
1260.051636 1.177908 0.000000 2.872450 0.001353
1279.275635 1.123420 0.000000 0.307847 0.000447
1312.786743 1.178734 0.000000 1.646333 0.000652
1330.124023 1.229869 0.000000 2.709631 0.001446
1348.334106 1.238338 0.000000 0.619802 0.000656
1388.513062 1.211920 0.000000 0.880715 0.000322
1415.033936 1.251959 0.000000 1.541978 0.000731
1434.323608 1.302757 0.000000 1.542175 0.000769
1447.414307 1.301622 0.000000 1.633134 0.000561
1459.582764 1.299776 0.000000 2.846771 0.001779
1489.952271 1.331162 0.000000 4.000226 0.002410
1532.445068 1.267087 0.000000 0.890894 0.000604
1577.991943 1.275720 0.000000 1.613507 0.001397
1616.275513 1.265857 0.000000 1.920792 0.001616
1642.054932 1.238279 0.000000 0.462862 0.000122
1668.399048 1.313363 0.000000 5.383204 0.003930
1701.167114 1.231549 0.000000 1.627919 0.001668
1711.445923 1.216299 0.000000 0.713086 0.000445
1756.287842 1.248001 0.000000 3.458568 0.003019
1778.620605 1.187383 0.000000 2.460980 0.002437
1798.131714 1.174147 0.000000 0.601443 0.000711
1809.973022 1.165617 0.000000 0.924651 0.000893
1913.841797 1.108258 0.000000 0.276667 0.000266
finalresult GLS_NoMatch 0
spectrum 2048
-97.009468 46057.000000
-94.382599 46057.000000
-91.757607 46489.000000
-89.134506 46278.000000
-86.513275 47150.000000
-83.893944 46779.000000
-81.276474 47059.000000
-78.660881 46821.000000
-76.047165 47084.000000
-73.435326 47460.000000
-70.825348 47250.000000
-68.217255 47406.000000
-65.611008 47487.000000
-63.006638 47408.000000
-60.404129 47276.000000
-57.803474 47792.000000
-55.204681 47208.000000
-52.607746 46574.000000
-50.012665 46932.000000
-47.419437 46987.000000
-44.828060 47212.000000
-42.238529 46728.000000
-39.650841 47524.000000
-37.065002 47363.000000
-34.481007 46917.000000
-31.898849 47704.000000
-29.318537 47036.000000
-26.740051 47688.000000
-24.163408 47162.000000
-21.588591 47070.000000
-19.015614 46843.000000
-16.444456 46721.000000
-13.875132 46393.000000
-11.307633 45467.000000
-8.741954 46893.000000
-6.178101 46693.000000
-3.616060 47109.000000
-1.055844 47234.000000
1.502564 46799.000000
4.059151 45953.000000
6.613933 45950.000000
9.166899 46535.000000
11.718063 45651.000000
14.267415 45542.000000
16.814970 44838.000000
19.360714 45013.000000
21.904665 44530.000000
24.446812 42014.000000
26.987162 39488.000000
29.525726 36303.000000
32.062496 32822.000000
34.597462 27756.000000
37.130650 17183.000000
39.662056 10248.000000
42.191669 9242.000000
44.719486 8540.000000
47.245544 7485.000000
49.769814 6593.000000
52.292313 5823.000000
54.813015 5596.000000
57.331963 5788.000000
59.849136 7078.000000
62.364532 9062.000000
64.878151 8791.000000
67.390015 8051.000000
69.900131 6600.000000
72.408455 4964.000000
74.915024 4240.000000
77.419846 3486.000000
79.922913 2754.000000
82.424202 2461.000000
84.923752 2356.000000
87.421547 2296.000000
89.917610 2507.000000
92.411896 2925.000000
94.904442 3478.000000
97.395271 3535.000000
99.884331 3296.000000
102.371643 2546.000000
104.857231 2047.000000
107.341080 1928.000000
109.823181 1821.000000
112.303558 1680.000000
114.782211 1657.000000
117.259140 1673.000000
119.734314 1628.000000
122.207779 1747.000000
124.679512 1803.000000
127.149536 1909.000000
129.617798 10282.000000
132.084396 26833.000000
134.549240 35329.000000
137.012390 36770.000000
139.473801 38321.000000
141.933517 41325.000000
144.391510 43309.000000
146.847809 44591.000000
149.302399 45435.000000
151.755264 45022.000000
154.206451 45858.000000
156.655945 45867.000000
159.103714 46561.000000
161.549774 46198.000000
163.994156 44319.000000
166.436859 46636.000000
168.877869 46310.000000
171.317169 46910.000000
173.754761 45932.000000
176.190720 46679.000000
178.624939 46399.000000
181.057480 46108.000000
183.488373 46604.000000
185.917542 46264.000000
188.345062 46791.000000
190.770905 47098.000000
193.195068 46657.000000
195.617569 46240.000000
198.038376 46068.000000
200.457520 46946.000000
202.875000 47447.000000
205.290787 45901.000000
207.704926 46279.000000
210.117432 47132.000000
212.528259 47359.000000
214.937408 47249.000000
217.344925 46083.000000
219.750732 47318.000000
222.154953 47041.000000
224.557465 46774.000000
226.958359 46522.000000
229.357605 47063.000000
231.755188 46632.000000
234.151108 46266.000000
236.545410 46936.000000
238.938049 47609.000000
241.329071 46662.000000
243.718430 46976.000000
246.106171 47081.000000
248.492264 46525.000000
250.876724 47386.000000
253.259537 45608.000000
255.640778 46871.000000
258.020325 46786.000000
260.398285 47046.000000
262.774567 45944.000000
265.149292 45913.000000
267.522369 45699.000000
269.893799 47332.000000
272.263580 47044.000000
274.631805 47660.000000
276.998383 47155.000000
279.363373 46754.000000
281.726746 47415.000000
284.088470 47207.000000
286.448608 46340.000000
288.807129 47478.000000
291.164063 47005.000000
293.519379 47158.000000
295.873108 47490.000000
298.225189 47496.000000
300.575714 47116.000000
302.924652 47070.000000
305.271942 46585.000000
307.617706 47027.000000
309.961792 47008.000000
312.304352 46053.000000
314.645294 45924.000000
316.984619 46326.000000
319.322388 46517.000000
321.658600 45416.000000
323.993164 47245.000000
326.326172 47004.000000
328.657623 47456.000000
330.987488 46667.000000
333.315765 47092.000000
335.642426 46315.000000
337.967590 47203.000000
340.291138 47259.000000
342.613129 47438.000000
344.933563 45951.000000
347.252380 45767.000000
349.569641 47489.000000
351.885376 47627.000000
354.199524 46467.000000
356.512085 47081.000000
358.823090 47129.000000
361.132568 46395.000000
363.440521 47082.000000
365.746857 47810.000000
368.051605 47075.000000
370.354889 47009.000000
372.656555 47262.000000
374.956726 47167.000000
377.255341 47188.000000
379.552399 47682.000000
381.847900 47366.000000
384.141876 47656.000000
386.434265 48346.000000
388.725159 47861.000000
391.014526 47296.000000
393.302307 47205.000000
395.588562 46932.000000
397.873322 46513.000000
400.156464 47441.000000
402.438171 47045.000000
404.718353 47374.000000
406.996948 46204.000000
409.274017 47018.000000
411.549561 46721.000000
413.823578 46929.000000
416.096161 47023.000000
418.367126 47184.000000
420.636597 46985.000000
422.904572 46301.000000
425.170990 46201.000000
427.435913 47218.000000
429.699371 47127.000000
431.961243 46962.000000
434.221649 47494.000000
436.480499 46949.000000
438.737885 47304.000000
440.993774 47774.000000
443.248169 47687.000000
445.501038 47997.000000
447.752350 46586.000000
450.002258 47388.000000
452.250580 47187.000000
454.497467 47797.000000
456.742889 46979.000000
458.986755 47016.000000
461.229126 46683.000000
463.470001 47783.000000
465.709473 46778.000000
467.947357 47938.000000
470.183807 47632.000000
472.418732 47387.000000
474.652191 46142.000000
476.884216 46851.000000
479.114716 47744.000000
481.343719 47005.000000
483.571259 47083.000000
485.797302 47549.000000
488.021912 46927.000000
490.245056 47531.000000
492.466736 47014.000000
494.686859 46731.000000
496.905579 47737.000000
499.122803 47187.000000
501.338654 47886.000000
503.552887 47309.000000
505.765808 46989.000000
507.977142 46977.000000
510.187042 46526.000000
512.395508 46932.000000
514.602600 46843.000000
516.808105 47059.000000
519.012207 46913.000000
521.214783 47307.000000
523.415955 46897.000000
525.615784 46771.000000
527.814087 46618.000000
530.010864 48093.000000
532.206299 47646.000000
534.400208 47834.000000
536.592773 45850.000000
538.783813 46739.000000
540.973450 47411.000000
543.161682 46523.000000
545.348389 46300.000000
547.533630 46643.000000
549.717590 47194.000000
551.899963 46969.000000
554.080994 47226.000000
556.260498 47380.000000
558.438721 47510.000000
560.615417 47449.000000
562.790710 47155.000000
564.964600 47056.000000
567.137024 47559.000000
569.308044 47380.000000
571.477600 47195.000000
573.645874 48194.000000
575.812622 46999.000000
577.977905 47106.000000
580.141785 47321.000000
582.304382 47627.000000
584.465454 47419.000000
586.625122 47781.000000
588.783447 47597.000000
590.940247 47223.000000
593.095703 46850.000000
595.249756 47694.000000
597.402466 47270.000000
599.553650 46234.000000
601.703491 46637.000000
603.851990 46712.000000
605.998901 47451.000000
608.144592 46945.000000
610.288879 46988.000000
612.431702 46391.000000
614.573059 47272.000000
616.713196 47029.000000
618.851807 45791.000000
620.989136 47651.000000
623.125000 46789.000000
625.259460 46432.000000
627.392456 46145.000000
629.524292 46694.000000
631.654663 46898.000000
633.783630 46586.000000
635.911133 46893.000000
638.037354 47137.000000
640.162048 46073.000000
642.285522 46920.000000
644.407654 46536.000000
646.528320 46527.000000
648.647644 46830.000000
650.765564 47686.000000
652.882141 47733.000000
654.997314 46883.000000
657.111145 46922.000000
659.223511 47544.000000
661.334656 47216.000000
663.444397 47990.000000
665.552673 47297.000000
667.659790 47108.000000
669.765442 46577.000000
671.869629 47384.000000
673.972595 47609.000000
676.074158 46298.000000
678.174377 48064.000000
680.273193 46626.000000
682.370667 47160.000000
684.466858 46418.000000
686.561584 47080.000000
688.655090 46419.000000
690.747253 46757.000000
692.837891 45353.000000
694.927307 46747.000000
697.015442 46911.000000
699.102112 47338.000000
701.187561 46633.000000
703.271484 48201.000000
705.354187 47447.000000
707.435608 47402.000000
709.515564 45827.000000
711.594299 47129.000000
713.671570 47774.000000
715.747559 46743.000000
717.822266 47296.000000
719.895691 46346.000000
721.967590 47018.000000
724.038330 45816.000000
726.107727 47483.000000
728.175720 46892.000000
730.242371 47000.000000
732.307800 46307.000000
734.371887 47580.000000
736.434631 47178.000000
738.496033 46919.000000
740.556152 46663.000000
742.614868 47289.000000
744.672363 46744.000000
746.728577 46828.000000
748.783386 46682.000000
750.836914 46898.000000
752.889038 45849.000000
754.939941 47519.000000
756.989624 46583.000000
759.037842 46975.000000
761.084839 47060.000000
763.130554 46370.000000
765.174866 47959.000000
767.217896 47511.000000
769.259705 38358.000000
771.300171 46313.000000
773.339233 46921.000000
775.377136 47150.000000
777.413696 47294.000000
779.449036 47903.000000
781.483032 47538.000000
783.515625 46353.000000
785.547058 47843.000000
787.577087 41816.000000
789.605835 47194.000000
791.633423 46964.000000
793.659668 46997.000000
795.684509 47466.000000
797.708252 47716.000000
799.730591 46951.000000
801.751709 47396.000000
803.771484 46617.000000
805.789978 48356.000000
807.807251 46555.000000
809.823120 46494.000000
811.837830 47472.000000
813.851196 46705.000000
815.863342 46945.000000
817.874268 47099.000000
819.883850 46583.000000
821.892212 47932.000000
823.899170 47482.000000
825.904907 47191.000000
827.909424 47522.000000
829.912659 47521.000000
831.914612 46779.000000
833.915283 47123.000000
835.914734 47278.000000
837.912842 46779.000000
839.909851 46145.000000
841.905457 46962.000000
843.899902 47162.000000
845.893005 47021.000000
847.884888 46378.000000
849.875427 47589.000000
851.864685 46385.000000
853.852905 47127.000000
855.839722 47397.000000
857.825317 46712.000000
859.809631 45953.000000
861.792847 46797.000000
863.774658 46751.000000
865.755249 47354.000000
867.734558 45456.000000
869.712708 46090.000000
871.689514 46994.000000
873.665039 47282.000000
875.639526 47007.000000
877.612549 47132.000000
879.584534 47821.000000
881.555176 46816.000000
883.524658 47089.000000
885.492798 47575.000000
887.459778 47991.000000
889.425415 47014.000000
891.389893 47329.000000
893.353149 47153.000000
895.315186 46637.000000
897.275940 47339.000000
899.235474 46748.000000
901.193726 46446.000000
903.150879 46822.000000
905.106873 47049.000000
907.061462 46178.000000
909.014832 46653.000000
910.967041 46700.000000
912.918030 46805.000000
914.867737 45993.000000
916.816284 46656.000000
918.763611 46937.000000
920.709656 46989.000000
922.654419 47014.000000
924.598145 46726.000000
926.540710 47139.000000
928.481995 47451.000000
930.421936 46542.000000
932.360779 47300.000000
934.298340 47544.000000
936.234680 47073.000000
938.169861 47254.000000
940.103760 46929.000000
942.036560 47148.000000
943.968140 46259.000000
945.898560 47814.000000
947.827759 46636.000000
949.755615 46047.000000
951.682434 46380.000000
953.607971 47085.000000
955.532227 47649.000000
957.455383 47035.000000
959.377380 46357.000000
961.298096 45756.000000
963.217651 46534.000000
965.136047 47719.000000
967.053406 46589.000000
968.969299 46679.000000
970.884094 46869.000000
972.797668 47103.000000
974.710083 46646.000000
976.621277 46546.000000
978.531311 47569.000000
980.440063 46822.000000
982.347778 46906.000000
984.254272 46660.000000
986.159546 47296.000000
988.063721 46239.000000
989.966675 46792.000000
991.868408 46135.000000
993.768982 46557.000000
995.668396 46444.000000
997.566589 47662.000000
999.463623 46367.000000
1001.359436 46405.000000
1003.254089 45213.000000
1005.147644 47352.000000
1007.039917 45720.000000
1008.931274 46817.000000
1010.821289 47562.000000
1012.710083 46267.000000
1014.597717 46528.000000
1016.484192 45977.000000
1018.369507 46178.000000
1020.253662 46931.000000
1022.136597 46969.000000
1024.018433 46704.000000
1025.899048 47706.000000
1027.778564 47059.000000
1029.657104 46834.000000
1031.534302 47458.000000
1033.410156 46719.000000
1035.285034 46969.000000
1037.158936 46270.000000
1039.031372 45832.000000
1040.902832 46248.000000
1042.772949 47362.000000
1044.642090 47322.000000
1046.510010 47075.000000
1048.376831 45819.000000
1050.242554 46205.000000
1052.107056 46447.000000
1053.970459 46407.000000
1055.832520 46406.000000
1057.693604 46993.000000
1059.553589 46374.000000
1061.412231 46218.000000
1063.269775 47010.000000
1065.126221 46056.000000
1066.981567 46859.000000
1068.835693 47089.000000
1070.688965 46564.000000
1072.540771 46405.000000
1074.391602 46612.000000
1076.241211 46698.000000
1078.089600 47067.000000
1079.937134 44857.000000
1081.783325 47173.000000
1083.628296 46549.000000
1085.472412 47277.000000
1087.315186 47201.000000
1089.156738 46187.000000
1090.997559 47193.000000
1092.836792 46914.000000
1094.675293 46622.000000
1096.512451 46622.000000
1098.348389 45821.000000
1100.183350 46055.000000
1102.017090 47224.000000
1103.849854 46980.000000
1105.681274 46455.000000
1107.511841 45398.000000
1109.341064 46054.000000
1111.169312 46145.000000
1112.996338 45487.000000
1114.822388 47225.000000
1116.647217 46275.000000
1118.470947 45468.000000
1120.293457 46491.000000
1122.114868 46695.000000
1123.935425 46697.000000
1125.754517 45946.000000
1127.572754 45560.000000
1129.389648 45682.000000
1131.205688 45935.000000
1133.020508 46091.000000
1134.834229 46979.000000
1136.646851 46848.000000
1138.458252 46973.000000
1140.268677 46535.000000
1142.078003 45886.000000
1143.885986 45538.000000
1145.693237 46636.000000
1147.499023 46710.000000
1149.303955 47166.000000
1151.107788 47219.000000
1152.910400 46496.000000
1154.712158 46412.000000
1156.512451 46500.000000
1158.311768 46381.000000
1160.110107 46593.000000
1161.907104 47013.000000
1163.703369 46419.000000
1165.498291 46324.000000
1167.292114 46010.000000
1169.085083 44742.000000
1170.876709 46598.000000
1172.667358 45746.000000
1174.457031 46316.000000
1176.245239 46531.000000
1178.032593 44847.000000
1179.818848 45421.000000
1181.604004 46489.000000
1183.388062 46272.000000
1185.171021 44562.000000
1186.953003 46375.000000
1188.733765 46298.000000
1190.513550 45814.000000
1192.292236 45345.000000
1194.069946 45476.000000
1195.846436 44921.000000
1197.621826 45579.000000
1199.396118 45584.000000
1201.169312 45371.000000
1202.941650 45576.000000
1204.712646 45355.000000
1206.482788 46342.000000
1208.251709 45873.000000
1210.019531 45701.000000
1211.786499 46224.000000
1213.552124 46103.000000
1215.316772 45053.000000
1217.080322 45502.000000
1218.842773 46057.000000
1220.604370 45332.000000
1222.364746 46171.000000
1224.124023 45702.000000
1225.882446 45939.000000
1227.639648 44985.000000
1229.395752 45596.000000
1231.150757 46578.000000
1232.904907 46119.000000
1234.657715 46218.000000
1236.409546 46057.000000
1238.160522 46185.000000
1239.910156 47113.000000
1241.658936 45014.000000
1243.406372 45547.000000
1245.153076 45466.000000
1246.898560 45558.000000
1248.643188 45654.000000
1250.386475 45280.000000
1252.128784 45317.000000
1253.869995 46617.000000
1255.610352 46848.000000
1257.349609 46112.000000
1259.087646 45304.000000
1260.824829 44778.000000
1262.560791 45883.000000
1264.295776 45524.000000
1266.029785 44671.000000
1267.762817 46003.000000
1269.494629 45829.000000
1271.225464 45562.000000
1272.955078 44761.000000
1274.683838 46077.000000
1276.411499 46341.000000
1278.138062 46465.000000
1279.863770 46444.000000
1281.588135 45562.000000
1283.311646 46810.000000
1285.034180 45050.000000
1286.755737 45319.000000
1288.476074 45828.000000
1290.195435 45192.000000
1291.913696 44607.000000
1293.630981 45380.000000
1295.347290 46011.000000
1297.062378 45464.000000
1298.776489 45556.000000
1300.489624 45969.000000
1302.201904 45256.000000
1303.912964 43390.000000
1305.623047 46408.000000
1307.332031 45328.000000
1309.039795 44969.000000
1310.746948 44661.000000
1312.452637 45837.000000
1314.157593 44743.000000
1315.861572 45472.000000
1317.564331 45698.000000
1319.266113 45086.000000
1320.967041 45581.000000
1322.666626 42514.000000
1324.365356 44259.500000
1326.063354 46005.000000
1327.760010 44896.000000
1329.455566 44077.000000
1331.150269 44403.000000
1332.843750 45460.000000
1334.536377 45814.000000
1336.228149 43833.000000
1337.918579 44919.000000
1339.608276 44702.000000
1341.296875 45143.000000
1342.984375 43616.000000
1344.670898 45554.000000
1346.356323 44481.000000
1348.040771 45308.000000
1349.724365 44050.000000
1351.406738 44952.000000
1353.088135 45453.000000
1354.768677 44811.000000
1356.447998 44679.000000
1358.126709 45405.000000
1359.804077 44675.000000
1361.480347 45509.000000
1363.155640 45790.000000
1364.830200 44815.000000
1366.503540 44799.000000
1368.175903 44433.000000
1369.847290 46053.000000
1371.517700 44356.000000
1373.187012 45002.000000
1374.855347 45509.000000
1376.522827 45158.000000
1378.189209 44583.000000
1379.854614 44808.000000
1381.519043 45108.000000
1383.182251 45054.000000
1384.844849 45288.000000
1386.506104 44550.000000
1388.166504 44277.000000
1389.825806 44464.000000
1391.484131 44288.000000
1393.141724 43881.000000
1394.798096 44185.000000
1396.453613 43619.000000
1398.107910 44276.000000
1399.761353 44656.000000
1401.413696 44314.000000
1403.065308 43947.000000
1404.715698 43126.000000
1406.364990 43915.000000
1408.013550 42596.000000
1409.661011 42041.000000
1411.307495 43678.000000
1412.953125 43580.000000
1414.597778 43795.000000
1416.241211 42735.000000
1417.883789 42570.000000
1419.525269 42796.000000
1421.165894 43053.000000
1422.805542 43146.000000
1424.444092 43550.000000
1426.081787 42913.000000
1427.718384 43148.000000
1429.354004 43413.000000
1430.988892 43053.000000
1432.622681 43608.000000
1434.255371 43334.000000
1435.887085 43824.000000
1437.517944 43383.000000
1439.147705 43506.000000
1440.776367 41780.000000
1442.404419 43575.000000
1444.031372 43353.000000
1445.657104 43458.000000
1447.282227 43480.000000
1448.906250 43197.000000
1450.529297 43637.000000
1452.151367 43714.000000
1453.772339 42331.000000
1455.392334 43296.000000
1457.011597 42761.000000
1458.629517 43977.000000
1460.246826 44005.500000
1461.863159 44034.000000
1463.478271 42055.000000
1465.092529 42846.000000
1466.705933 43945.000000
1468.318237 43575.000000
1469.929688 42751.000000
1471.540283 42710.000000
1473.149658 42951.000000
1474.758057 42983.000000
1476.365601 42762.000000
1477.972168 42098.000000
1479.578003 43385.000000
1481.182617 42438.000000
1482.786377 43027.000000
1484.388916 41544.000000
1485.990845 42736.000000
1487.591553 42767.000000
1489.191528 42625.000000
1490.790405 42137.000000
1492.388428 41905.000000
1493.985352 41720.000000
1495.581421 42151.000000
1497.176514 42570.000000
1498.770630 43063.000000
1500.364014 41805.000000
1501.956299 42744.000000
1503.547363 41990.000000
1505.137939 41287.000000
1506.727173 41425.000000
1508.315796 41487.000000
1509.903320 40868.000000
1511.489746 40429.000000
1513.075439 41014.000000
1514.660034 40499.000000
1516.243774 40521.000000
1517.826416 40708.000000
1519.408325 40014.000000
1520.989136 39801.000000
1522.569214 40235.000000
1524.148071 39746.000000
1525.726074 39425.000000
1527.303345 39456.000000
1528.879395 39827.000000
1530.454712 39614.000000
1532.028931 39113.000000
1533.602417 39865.000000
1535.174683 39367.000000
1536.746216 38953.000000
1538.316772 38784.000000
1539.886475 38830.000000
1541.454956 39601.000000
1543.022705 38298.000000
1544.589600 39289.000000
1546.155273 38048.000000
1547.720215 38793.000000
1549.284058 39657.000000
1550.847290 37217.000000
1552.409180 38497.000000
1553.970459 38680.000000
1555.530640 38910.000000
1557.090088 38801.000000
1558.648438 38614.000000
1560.206055 38301.000000
1561.762573 37488.000000
1563.317871 38716.000000
1564.872559 38198.000000
1566.426514 38952.000000
1567.979492 38265.000000
1569.531128 38832.000000
1571.082031 38719.000000
1572.632202 38348.000000
1574.181396 38239.000000
1575.729248 38798.000000
1577.276611 38952.000000
1578.822998 38713.000000
1580.368530 39431.000000
1581.913086 37806.000000
1583.456421 38092.000000
1584.999146 37827.000000
1586.541016 37985.000000
1588.081787 37581.000000
1589.621582 38416.000000
1591.160645 37520.000000
1592.698608 38275.000000
1594.236084 38074.000000
1595.772217 38297.000000
1597.307251 37451.000000
1598.841797 37887.000000
1600.375366 38083.000000
1601.908081 37989.000000
1603.439209 37735.000000
1604.970093 37781.000000
1606.500122 38274.000000
1608.028931 37851.000000
1609.556641 37902.000000
1611.083740 38010.000000
1612.610107 38186.000000
1614.135498 37812.000000
1615.660034 38242.000000
1617.183228 38125.000000
1618.705688 38343.000000
1620.227417 37416.000000
1621.748291 36997.000000
1623.267700 37240.000000
1624.786621 37483.000000
1626.304810 37018.000000
1627.822144 37076.000000
1629.338379 36515.000000
1630.853271 35831.000000
1632.367676 35974.000000
1633.881348 36836.000000
1635.393921 35696.000000
1636.905273 36487.000000
1638.416260 35913.000000
1639.926147 36061.000000
1641.435181 36028.000000
1642.942871 36504.000000
1644.450195 35961.000000
1645.956665 34935.000000
1647.462158 35778.000000
1648.966797 34993.000000
1650.469971 35615.000000
1651.972534 35118.000000
1653.474731 35179.000000
1654.975586 34804.000000
1656.475342 33801.000000
1657.974243 35201.000000
1659.472778 34587.000000
1660.970093 34801.000000
1662.466675 35060.000000
1663.961670 34627.000000
1665.456421 34867.000000
1666.950317 36057.000000
1668.443237 35994.000000
1669.934814 35278.500000
1671.425903 34563.000000
1672.916382 33342.000000
1674.405762 33434.000000
1675.893677 32512.000000
1677.381348 32485.000000
1678.868042 33202.000000
1680.353882 33628.000000
1681.838867 32780.000000
1683.322388 32559.000000
1684.805664 32438.000000
1686.288086 32625.000000
1687.769409 32364.000000
1689.249268 32376.000000
1690.728882 32986.000000
1692.207764 31904.000000
1693.685669 32815.000000
1695.162598 32295.000000
1696.638306 32529.000000
1698.113647 32296.000000
1699.587769 32049.000000
1701.061279 32854.000000
1702.533325 32961.000000
1704.005127 31770.000000
1705.475952 32308.000000
1706.945923 31330.000000
1708.414551 33247.000000
1709.882690 32606.000000
1711.350098 32140.000000
1712.816406 32929.000000
1714.282104 32723.000000
1715.746094 32482.000000
1717.209961 32707.000000
1718.672974 31791.000000
1720.135010 32337.000000
1721.595825 32027.000000
1723.056030 33072.000000
1724.515503 32217.000000
1725.974121 32493.000000
1727.431763 32518.000000
1728.888062 32315.000000
1730.344116 32456.000000
1731.799194 32047.000000
1733.253296 32378.000000
1734.706177 31528.000000
1736.158813 32418.000000
1737.610352 31560.000000
1739.061157 32245.000000
1740.510986 31664.000000
1741.959473 32228.000000
1743.407593 30563.000000
1744.854858 31521.000000
1746.301392 31250.000000
1747.746338 31081.000000
1749.191040 31728.000000
1750.634888 32015.000000
1752.077881 32567.000000
1753.519409 31903.000000
1754.960693 32610.000000
1756.401123 32366.000000
1757.840576 32122.000000
1759.279053 31418.000000
1760.716553 30587.000000
1762.153564 29125.000000
1763.589600 30628.000000
1765.024780 29400.000000
1766.458496 30155.000000
1767.892090 29905.000000
1769.324707 29626.000000
1770.756470 30195.000000
1772.187378 29955.000000
1773.617065 29062.000000
1775.046021 28942.000000
1776.474487 28577.000000
1777.901978 27974.000000
1779.328125 28133.000000
1780.754028 29008.000000
1782.178833 27900.000000
1783.603027 29142.000000
1785.025757 28080.000000
1786.447998 28143.000000
1787.869507 27719.000000
1789.290283 28451.000000
1790.710083 28127.000000
1792.128540 27973.000000
1793.546509 27283.000000
1794.963867 28521.000000
1796.380371 27938.000000
1797.795410 27590.000000
1799.210083 28231.000000
1800.624146 27558.000000
1802.036987 28217.000000
1803.449219 27228.000000
1804.860107 27100.000000
1806.270508 26310.000000
1807.680176 27349.000000
1809.088867 27694.000000
1810.496460 28256.000000
1811.903564 27468.000000
1813.309814 27552.000000
1814.715088 27185.000000
1816.119263 27992.000000
1817.523071 27916.000000
1818.925903 27613.000000
1820.327881 27892.000000
1821.729248 28013.000000
1823.129150 27612.000000
1824.528442 27503.000000
1825.927246 27422.000000
1827.325195 26543.000000
1828.721802 28066.000000
1830.117798 27159.000000
1831.513062 28005.000000
1832.907715 25772.000000
1834.301392 27758.000000
1835.693726 26755.000000
1837.085571 27131.000000
1838.476807 27546.000000
1839.867065 26291.000000
1841.256104 27265.000000
1842.644775 27107.000000
1844.032471 27137.000000
1845.419434 27217.000000
1846.805054 26111.000000
1848.190430 26999.000000
1849.574951 26458.000000
1850.958740 26483.000000
1852.341431 26229.000000
1853.722900 26889.000000
1855.103882 25799.000000
1856.484375 25920.000000
1857.863892 26271.000000
1859.241943 26266.000000
1860.619873 26122.000000
1861.996826 24650.000000
1863.373047 25780.000000
1864.748413 25433.000000
1866.122314 25573.000000
1867.496094 25416.000000
1868.869019 25113.000000
1870.240845 25280.000000
1871.611694 24453.000000
1872.982178 25271.000000
1874.351563 24905.000000
1875.720459 24870.000000
1877.087769 24148.000000
1878.454956 24646.000000
1879.821167 24693.000000
1881.186646 24331.000000
1882.551392 23931.000000
1883.914551 24397.000000
1885.277588 23984.000000
1886.639771 24130.000000
1888.001099 23802.000000
1889.361084 24131.000000
1890.720703 24086.000000
1892.079712 23995.000000
1893.437744 23795.000000
1894.794922 23312.000000
1896.150879 24103.000000
1897.506592 23023.000000
1898.861328 23765.000000
1900.215210 23810.000000
1901.567993 23773.000000
1902.920288 23686.000000
1904.271851 23898.000000
1905.622559 23578.000000
1906.972046 23703.000000
1908.321045 23509.000000
1909.669189 23824.000000
1911.016724 23739.000000
1912.363525 23721.000000
1913.708740 23661.000000
1915.053711 23814.000000
1916.397949 24276.000000
1917.741333 23870.000000
1919.083374 24102.000000
1920.425171 23678.000000
1921.766113 23392.000000
1923.106323 23847.000000
1924.445557 23688.000000
1925.783813 23931.000000
1927.121460 23868.000000
1928.458374 23536.000000
1929.794434 23454.000000
1931.129272 23959.000000
1932.463745 23583.000000
1933.797485 22992.000000
1935.130371 23272.000000
1936.461792 23399.000000
1937.793335 23086.000000
1939.123535 22666.000000
1940.453247 23192.000000
1941.782104 23259.000000
1943.109741 23078.000000
1944.436890 23199.000000
1945.763306 23064.000000
1947.088989 22847.000000
1948.413330 23027.000000
1949.737427 22820.000000
1951.060669 22815.000000
1952.383179 22755.000000
1953.704590 22886.000000
1955.025024 22283.000000
1956.344849 22676.000000
1957.664307 22746.000000
1958.982788 22190.000000
1960.299927 22384.000000
1961.616699 22214.000000
1962.932739 22100.000000
1964.248047 22071.000000
1965.561890 22127.000000
1966.875488 22040.000000
1968.188354 21781.000000
1969.500366 22048.000000
1970.811768 21874.000000
1972.121826 21527.000000
1973.431396 21400.000000
1974.740234 21283.000000
1976.048462 21125.000000
1977.355347 21155.000000
1978.661621 20849.000000
1979.967529 21368.000000
1981.272217 21118.000000
1982.576416 21209.000000
1983.879395 21289.000000
1985.182007 20959.000000
1986.483643 20897.000000
1987.784668 20400.000000
1989.084106 20323.000000
1990.383667 20431.000000
1991.682129 20374.000000
1992.980103 20331.000000
1994.276489 20279.000000
1995.572876 20070.000000
1996.868286 20062.000000
1998.162964 19764.000000
1999.456787 19910.000000
2000.749390 19617.000000
2002.041504 19692.000000
2003.333130 19468.000000
2004.624023 19588.000000
2005.913330 19656.000000
2007.202393 19407.000000
2008.490723 19539.000000
2009.778320 19451.000000
2011.065063 19504.000000
2012.350708 19281.000000
2013.635986 19407.000000
2014.920288 19411.000000
2016.203979 19470.000000
2017.486328 19136.000000
2018.768311 19042.000000
2020.049805 19138.000000
2021.330322 19199.000000
2022.610107 19185.000000
2023.888794 19020.000000
2025.166748 19112.000000
2026.444214 19124.000000
2027.721069 19082.000000
2028.996216 19378.000000
2030.271484 19348.000000
2031.545776 19328.000000
2032.819092 19185.000000
2034.091553 19584.000000
2035.363647 19264.000000
2036.634644 19283.000000
2037.905396 19196.000000
2039.174805 19269.000000
2040.443115 19336.000000
2041.711426 19273.000000
2042.978760 19243.000000
2044.245361 19165.000000
2045.510742 19122.000000
2046.775513 19340.000000
2048.040039 19053.000000
2049.303467 18898.000000
2050.566406 19042.000000
2051.827393 18831.000000
2053.088867 18677.000000
2054.349121 18651.000000
2055.608643 18467.000000
2056.867432 18501.000000
2058.125244 18485.000000
2059.382568 18389.000000
2060.639160 18497.000000
2061.894287 18303.000000
2063.149414 18327.000000
2064.403564 18426.000000
2065.656982 18137.000000
2066.909668 18077.000000
2068.161133 18007.000000
2069.412354 18119.000000
2070.662842 18048.000000
2071.912598 18275.000000
2073.160889 17998.000000
2074.409180 17915.000000
2075.656494 17838.000000
2076.903076 17784.000000
2078.148926 17803.000000
2079.393555 17743.000000
2080.637695 17746.000000
2081.881348 17565.000000
2083.124023 17456.000000
2084.365479 17359.000000
2085.606689 17434.000000
2086.847412 17339.000000
2088.087158 17246.000000
2089.325684 17083.000000
2090.563721 17122.000000
2091.801025 17071.000000
2093.038086 17006.000000
2094.273682 17077.000000
2095.508545 17075.000000
2096.743164 17253.000000
2097.976807 17066.000000
2099.209473 16900.000000
2100.441406 16786.000000
2101.672852 16702.000000
2102.903320 16639.000000
2104.133057 16588.000000
2105.362549 16535.000000
2106.590088 16449.000000
2107.817871 16224.000000
2109.044922 16138.000000
2110.270996 16232.000000
2111.495605 16054.000000
2112.720459 15965.000000
2113.944092 15920.000000
2115.167236 16013.000000
2116.389160 15963.000000
2117.610840 16169.000000
2118.831543 16027.000000
2120.051514 16140.000000
2121.270996 16231.000000
2122.489014 16318.000000
2123.707031 16162.000000
2124.924072 16238.000000
2126.140625 16247.000000
2127.355469 16229.000000
2128.570557 16280.000000
2129.784668 16151.000000
2130.998047 15955.000000
2132.210693 15742.000000
2133.421875 16034.000000
2134.633301 16075.000000
2135.843506 15813.000000
2137.053223 16089.000000
2138.261475 16223.000000
2139.469727 16025.000000
2140.677246 15879.000000
2141.883545 15569.000000
2143.089111 15814.000000
2144.294434 15849.000000
2145.498779 15914.000000
2146.702393 15887.000000
2147.905518 15850.000000
2149.107178 15723.000000
2150.308594 15771.000000
2151.509277 15623.000000
2152.709229 15527.000000
2153.907959 15563.000000
2155.106445 15645.000000
2156.304443 15618.000000
2157.501465 15354.000000
2158.697754 15255.000000
2159.892822 15027.000000
2161.087646 15009.000000
2162.281738 15013.000000
2163.474854 14879.000000
2164.666992 14790.000000
2165.858887 14846.000000
2167.050049 14630.000000
2168.240234 14313.000000
2169.429688 14481.000000
2170.618652 14313.000000
2171.806641 14016.000000
2172.994385 14169.000000
2174.180664 14006.000000
2175.366211 13774.000000
2176.551514 13830.000000
2177.736328 13828.000000
2178.919922 13819.000000
2180.102783 13713.000000
2181.284668 13759.000000
2182.466309 13712.000000
2183.647461 13768.000000
2184.827393 13774.000000
2186.006348 13722.000000
2187.184814 13482.000000
2188.363037 13457.000000
2189.540039 13527.000000
2190.716064 13537.000000
2191.891846 13732.000000
2193.067139 13744.000000
2194.240967 13715.000000
2195.414307 13782.000000
2196.587402 13714.000000
2197.759277 13688.000000
2198.930664 13805.000000
2200.101563 13811.000000
2201.270752 13672.000000
2202.439941 13704.000000
2203.608643 13571.000000
2204.776367 13786.000000
2205.943115 13838.000000
2207.109131 13531.000000
2208.274658 13673.000000
2209.439941 13655.000000
2210.603760 13588.000000
2211.767090 13725.000000
2212.929199 13465.000000
2214.091553 13574.000000
2215.252686 13409.000000
2216.412842 13557.000000
2217.572510 13271.000000
2218.731934 13178.000000
2219.890137 13284.000000
2221.047363 13247.000000
2222.204346 13210.000000
2223.360596 13151.000000
2224.516113 13187.000000
2225.670898 12988.000000
2226.824707 13049.000000
2227.977539 12996.000000
2229.130859 12935.000000
2230.282227 12939.000000
2231.433350 12908.000000
2232.583740 12826.000000
2233.733643 12701.000000
2234.882568 12802.000000
2236.031006 12783.000000
2237.177979 12556.000000
2238.325195 12431.000000
2239.471191 12527.000000
2240.616943 12329.000000
2241.760986 12278.000000
2242.905273 12189.000000
2244.048584 12130.000000
2245.191162 12207.000000
2246.332764 11886.000000
2247.474121 11860.000000
2248.614502 11947.000000
2249.754150 11629.000000
2250.893311 11802.000000
2252.031250 11648.000000
2253.169189 11496.000000
2254.306152 11546.000000
2255.442383 11441.000000
2256.577637 11560.000000
2257.712158 11483.000000
2258.846436 11584.000000
2259.980225 11800.000000
2261.112549 11899.000000
2262.244385 11655.000000
2263.375732 11570.000000
2264.506104 11316.000000
2265.636230 11183.000000
2266.765137 11145.000000
2267.893555 11123.000000
2269.021484 11036.000000
2270.148438 11067.000000
2271.274658 11066.000000
2272.399902 11054.000000
2273.525146 11098.000000
2274.649658 11036.000000
2275.772949 11102.000000
2276.895508 10979.000000
2278.017578 11141.000000
2279.139160 10928.000000
2280.260010 11039.000000
2281.379639 10987.000000
2282.498779 10866.000000
2283.617676 10754.000000
2284.735840 10555.000000
2285.853027 10647.000000
2286.969238 10710.000000
2288.085205 10597.000000
2289.200439 10640.000000
2290.314941 10675.000000
2291.428223 10903.000000
2292.541504 10820.000000
2293.654053 10782.000000
2294.765869 10996.000000
2295.876953 10887.000000
2296.986816 10862.000000
2298.096191 10937.000000
2299.205322 10985.000000
2300.313477 11036.000000
2301.420654 10929.000000
2302.527588 11097.000000
2303.633789 10998.000000
2304.739502 10890.000000
2305.843750 10980.000000
2306.947754 10910.000000
2308.051270 10873.000000
2309.154297 10727.000000
2310.256104 10652.000000
2311.357178 10623.000000
2312.457764 10756.000000
2313.557861 10599.000000
2314.657227 10527.000000
2315.755127 10409.000000
2316.853516 10495.000000
2317.950439 10516.000000
2319.047119 10462.000000
2320.143311 10487.000000
2321.237793 10214.000000
2322.332275 10274.000000
2323.426025 10308.000000
2324.519531 10244.000000
2325.611328 10113.000000
2326.703125 10145.000000
2327.794189 10396.000000
2328.884521 10160.000000
2329.973877 10088.000000
2331.063232 10250.000000
2332.151367 10142.000000
2333.239014 10184.000000
2334.326416 10076.000000
2335.412109 10027.000000
2336.497559 9707.000000
2337.582764 9908.000000
2338.666992 9748.000000
2339.750244 9831.000000
2340.833252 9681.000000
2341.915283 9447.000000
2342.997070 9596.000000
2344.078125 9464.000000
2345.157959 9535.000000
2346.237305 9470.000000
2347.316162 9381.000000
2348.394531 9383.000000
2349.471436 9344.000000
2350.548096 9313.000000
2351.624512 9265.000000
2352.699951 9285.000000
2353.774414 9310.000000
2354.848633 9123.000000
2355.922119 9105.000000
2356.995117 9138.000000
2358.066895 9113.000000
2359.138428 9007.000000
2360.208984 8854.000000
2361.279297 8839.000000
2362.348633 8900.000000
2363.416992 8871.000000
2364.485107 8877.000000
2365.552490 8712.000000
2366.619385 8726.000000
2367.685547 8720.000000
2368.750488 8639.000000
2369.815430 8638.000000
2370.879639 8556.000000
2371.943115 8592.000000
2373.005371 8676.000000
2374.067627 8547.000000
2375.128906 8519.000000
2376.189941 8520.000000
2377.249756 8516.000000
2378.308838 8588.000000
2379.367920 8531.000000
2380.426025 8390.000000
2381.483398 8561.000000
2382.539795 8440.000000
2383.595947 8276.000000
2384.651611 8298.000000
2385.706543 8297.000000
2386.760010 8318.000000
2387.813721 8183.000000
2388.866455 8365.000000
2389.918701 8317.000000
2390.970215 8358.000000
2392.020752 8373.000000
2393.071045 8365.000000
2394.120361 8366.000000
2395.169678 8398.000000
2396.217529 8303.000000
2397.264893 8226.000000
2398.312012 8310.000000
2399.358154 8233.000000
2400.403564 8175.000000
2401.448242 8077.000000
2402.492920 8183.000000
2403.536133 8045.000000
2404.579346 8099.000000
2405.621094 8242.000000
2406.663086 8239.000000
2407.704346 8082.000000
2408.744629 8214.000000
2409.784180 8341.000000
2410.822754 8128.000000
2411.861572 8227.000000
2412.899170 8159.000000
2413.936523 8057.000000
2414.972656 8070.000000
2416.008545 8100.000000
2417.043701 8099.000000
2418.078369 8167.000000
2419.111572 8063.000000
2420.145020 8085.000000
2421.177490 8029.000000
2422.209717 7902.000000
2423.240479 7989.000000
2424.271240 8043.000000
2425.301514 7821.000000
2426.330566 7766.000000
2427.359619 7788.000000
2428.386963 7838.000000
2429.414795 7899.000000
2430.441406 7785.000000
2431.467773 7812.000000
2432.492676 7716.000000
2433.517822 7691.000000
2434.541992 7666.000000
2435.565918 7641.000000
2436.588623 7585.000000
2437.610596 7587.000000
2438.632324 7546.000000
2439.653320 7504.000000
2440.673828 7309.000000
2441.693115 7294.000000
2442.712402 7223.000000
2443.730713 7164.000000
2444.748779 7187.000000
2445.765381 7146.000000
2446.781982 7123.000000
2447.797852 7151.000000
2448.813721 7103.000000
2449.828125 7058.000000
2450.841797 7076.000000
2451.854980 7025.000000
2452.867920 7102.000000
2453.880127 6986.000000
2454.891357 7060.000000
2455.902344 7043.000000
2456.912598 7110.000000
2457.922363 7000.000000
2458.931152 6932.000000
2459.939209 6764.000000
2460.947266 6899.000000
2461.954102 6713.000000
2462.960693 6661.000000
2463.966064 6609.000000
2464.971191 6641.000000
2465.976074 6678.000000
2466.979736 6681.000000
2467.983154 6626.000000
2468.985596 6598.000000
2469.987793 6786.000000
2470.989502 6704.000000
2471.990234 6653.000000
2472.989990 6537.000000
2473.989746 6567.000000
2474.988525 6533.000000
2475.986816 6491.000000
2476.984131 6538.000000
2477.981201 6507.000000
2478.978271 6435.000000
2479.973877 6370.000000
2480.969482 6478.000000
2481.963379 6473.000000
2482.957275 6522.000000
2483.950684 6394.000000
2484.943604 6471.000000
2485.935547 6473.000000
2486.926758 6469.000000
2487.917725 6472.000000
2488.908203 6480.000000
2489.897705 6462.000000
2490.886475 6378.000000
2491.875244 6493.000000
2492.863037 6440.000000
2493.849609 6456.000000
2494.836182 6419.000000
2495.822266 6552.000000
2496.807617 6505.000000
2497.791992 6316.000000
2498.776123 6433.000000
2499.760254 6362.000000
2500.742920 6377.000000
2501.725098 6519.000000
2502.706787 6395.000000
2503.687744 6398.000000
2504.668213 6323.000000
2505.648438 6283.000000
2506.627197 6307.000000
2507.605713 6293.000000
2508.583740 6359.000000
2509.561279 6126.000000
2510.537842 6334.000000
2511.514160 6214.000000
2512.489746 6270.000000
2513.464844 6198.000000
2514.439453 6248.000000
2515.412842 6088.000000
2516.385986 6081.000000
2517.358887 6112.000000
2518.330811 6060.000000
2519.302002 6128.000000
2520.272705 6012.000000
2521.243164 5973.000000
2522.212891 5864.000000
2523.181641 5927.000000
2524.149658 5813.000000
2525.117676 5901.000000
2526.084717 5914.000000
2527.051514 5892.000000
2528.017090 5863.000000
2528.982666 5839.000000
2529.947510 5829.000000
2530.911865 5784.000000
2531.875000 5864.000000
2532.838379 5806.000000
2533.800781 5798.000000
2534.762939 5810.000000
2535.723877 5864.000000
2536.684082 5744.000000
2537.644531 5720.000000
2538.604004 5776.000000
2539.562744 5864.000000
2540.520508 5631.000000
2541.478516 5536.000000
2542.435791 5564.000000
2543.392090 5605.000000
2544.348145 5532.000000
2545.302979 5467.000000
2546.258057 5441.000000
2547.212402 5415.000000
2548.166016 5134.000000
2549.118652 5288.000000
2550.071045 5303.000000
2551.022949 5234.000000
2551.974121 5383.000000
2552.924561 5224.000000
2553.874512 5265.000000
2554.824219 5255.000000
2555.773193 5328.000000
2556.721680 5191.000000
2557.668945 5243.000000
2558.616211 5278.000000
2559.562744 5155.000000
2560.508789 5225.000000
2561.453857 5162.000000
2562.398682 5201.000000
2563.343018 5135.000000
2564.286865 5037.000000
2565.230225 5019.000000
2566.172119 5117.000000
2567.114258 4942.000000
2568.055664 5067.000000
2568.996338 5078.000000
2569.936279 4985.000000
2570.876221 5134.000000
2571.815186 4940.000000
2572.753906 5013.000000
2573.691650 4935.000000
2574.629150 5018.000000
2575.565918 5052.000000
2576.501953 5083.000000
2577.437500 5121.000000
2578.372314 4977.000000
2579.307129 4993.000000
2580.240967 5004.000000
2581.174316 5126.000000
2582.106934 4957.000000
2583.039307 4933.000000
2583.970947 4967.000000
2584.902100 4947.000000
2585.832764 4896.000000
2586.762207 5058.000000
2587.691650 4874.000000
2588.620605 4815.000000
2589.549316 4901.000000
2590.476318 4964.000000
2591.403564 4932.000000
2592.330322 4855.000000
2593.256348 4887.000000
2594.182129 4962.000000
2595.106689 4811.000000
2596.031006 4764.000000
2596.954834 4899.000000
2597.878174 4755.000000
2598.800537 4872.000000
2599.722656 4790.000000
2600.644287 4788.000000
2601.565186 4773.000000
2602.485352 4869.000000
2603.405273 4820.000000
2604.324707 4767.000000
2605.243896 4732.000000
2606.162109 4717.000000
2607.079102 4658.000000
2607.996338 4691.000000
2608.913330 4725.000000
2609.829346 4492.000000
2610.744141 4641.000000
2611.659424 4544.000000
2612.573975 4549.000000
2613.487549 4487.000000
2614.401123 4556.000000
2615.313477 4554.000000
2616.225830 4628.000000
2617.137207 4530.000000
2618.048340 4593.000000
2618.958740 4472.000000
2619.868896 4501.000000
2620.778320 4436.000000
2621.687256 4480.000000
2622.595215 4437.000000
2623.503418 4512.000000
2624.410645 4343.000000
2625.317383 4456.000000
2626.223389 4480.000000
2627.129150 4458.000000
2628.034180 4528.000000
2628.938965 4337.000000
2629.843018 4320.000000
2630.746094 4223.000000
2631.649170 4244.000000
2632.551270 4276.000000
2633.453369 4206.000000
2634.355225 4300.000000
2635.255371 4169.000000
2636.155762 4197.000000
2637.055420 4192.000000
2637.954834 4227.000000
2638.852783 4085.000000
2639.751221 4170.000000
2640.649170 4174.000000
2641.546387 4111.000000
2642.442383 4015.000000
2643.338379 3998.000000
2644.234131 3973.000000
2645.129150 4064.000000
2646.023926 4058.000000
2646.917236 4038.000000
2647.810547 3896.000000
2648.703613 3914.000000
2649.596436 4012.000000
2650.487549 3900.000000
2651.378906 3969.000000
2652.269775 3940.000000
2653.159912 3861.000000
2654.049805 3929.000000
2654.938477 3872.000000
2655.827393 3955.000000
2656.715820 3887.000000
2657.603271 3903.000000
2658.489746 3914.000000
2659.376709 3803.000000
2660.262939 3854.000000
2661.148682 3699.000000
2662.033203 3805.000000
2662.917725 3876.000000
2663.802002 3822.000000
2664.685547 3856.000000
2665.568604 3862.000000
2666.450928 3745.000000
2667.332764 3828.000000
2668.213867 3840.000000
2669.095215 3871.000000
2669.975098 3932.000000
2670.855225 3838.000000
2671.734619 3817.000000
2672.614014 3788.000000
2673.492676 3815.000000
2674.369629 3815.000000
2675.247314 3741.000000
2676.124268 3790.000000
2677.000488 3717.000000
2677.876221 3790.000000
2678.751221 3689.000000
2679.626465 3634.000000
2680.500732 3716.000000
2681.374512 3606.000000
2682.247559 3576.000000
2683.120361 3579.000000
2683.992920 3639.000000
2684.864746 3644.000000
2685.735840 3627.000000
2686.606689 3617.000000
2687.477051 3538.000000
2688.347168 3658.000000
2689.215576 3561.000000
2690.084717 3550.000000
2690.953125 3545.000000
2691.821289 3475.000000
2692.688721 3528.000000
2693.554932 3494.000000
2694.421631 3431.000000
2695.287354 3545.000000
2696.153076 3475.000000
2697.017334 3452.000000
2697.882324 3491.000000
2698.745850 3374.000000
2699.609619 3398.000000
2700.471924 3314.000000
2701.334717 3472.000000
2702.196533 3366.000000
2703.057861 3380.000000
2703.919189 3408.000000
2704.779297 3455.000000
2705.639404 3319.000000
2706.499023 3400.000000
2707.358398 3248.000000
2708.216064 3348.000000
2709.073975 3322.000000
2709.932373 3314.000000
2710.789551 3283.000000
2711.645996 3364.000000
2712.501953 3259.000000
2713.357910 3236.000000
2714.213135 3268.000000
2715.067627 3179.000000
2715.921631 3139.000000
2716.775635 3163.000000
2717.628662 3172.000000
2718.481934 3121.000000
2719.333496 3114.000000
2720.185547 3190.000000
2721.037354 3133.000000
2721.887939 3104.000000
2722.738525 3206.000000
2723.588623 3133.000000
2724.437988 3036.000000
2725.287354 3182.000000
2726.135498 3164.000000
2726.983154 3157.000000
2727.831299 3106.000000
2728.678223 3100.000000
2729.525635 3111.000000
2730.371582 2984.000000
2731.216797 2962.000000
2732.062500 2968.000000
2732.907227 3008.000000
2733.751953 2939.000000
2734.595459 3084.000000
2735.439209 3028.000000
2736.282227 3076.000000
2737.124756 3003.000000
2737.966309 3035.000000
2738.808350 2936.000000
2739.649414 2928.000000
2740.490234 2915.000000
2741.330811 3018.000000
2742.170166 2975.000000
2743.009521 2869.000000
2743.848877 2924.000000
2744.687012 2882.000000
2745.524658 2959.000000
2746.362305 3018.000000
2747.199463 2958.000000
2748.036377 3004.000000
2748.872803 2944.000000
2749.708008 2962.000000
2750.543457 2881.000000
2751.378418 2916.000000
2752.212646 2912.000000
2753.046631 2921.000000
2753.880127 2784.000000
2754.713623 2853.000000
2755.546143 2729.000000
2756.378174 2840.000000
2757.209717 2805.000000
2758.041260 2840.000000
2758.871826 2833.000000
2759.702637 2861.000000
2760.532227 2872.000000
2761.361816 2686.000000
2762.191162 2727.000000
2763.019775 2687.000000
2763.847900 2751.000000
2764.675537 2747.000000
2765.503174 2729.000000
2766.330322 2798.000000
2767.156738 2723.000000
2767.982666 2629.000000
2768.808105 2614.000000
2769.633301 2613.000000
2770.458496 2675.000000
2771.282471 2671.000000
2772.106445 2617.000000
2772.930420 2621.000000
2773.753174 2654.000000
2774.576172 2623.000000
2775.397949 2710.000000
2776.219727 2567.000000
2777.041504 2609.000000
2777.862305 2461.000000
2778.682373 2641.000000
2779.502686 2576.000000
2780.322510 2494.000000
2781.142334 2517.000000
2781.960205 2626.000000
2782.779297 2571.000000
2783.597168 2608.000000
2784.414795 2565.000000
2785.231934 2530.000000
2786.048584 2519.000000
2786.864990 2529.000000
2787.680908 2383.000000
2788.496582 2430.000000
2789.311279 2423.000000
2790.126465 2426.000000
2790.940918 2489.000000
2791.754883 2422.000000
2792.568604 2443.000000
2793.381104 2498.000000
2794.193848 2472.000000
2795.006104 2330.000000
2795.817871 2472.000000
2796.628906 2365.000000
2797.440674 2361.000000
2798.251221 2433.000000
2799.061768 2348.000000
2799.870850 2321.000000
2800.680664 2277.000000
2801.489746 2341.000000
2802.298584 2363.000000
2803.106934 2244.000000
2803.914307 2291.000000
2804.722168 2326.000000
2805.529297 2298.000000
2806.336182 2302.000000
2807.141846 2383.000000
2807.947998 2297.000000
2808.753418 2220.000000
2809.558838 2308.000000
2810.363525 2283.000000
2811.167236 2319.000000
2811.971436 2234.000000
2812.775146 2300.000000
2813.578613 2271.000000
2814.380615 2274.000000
2815.183350 2290.000000
2815.985352 2235.000000
2816.787109 2275.000000
2817.588379 2241.000000
2818.389160 2176.000000
2819.189453 2251.000000
2819.989990 2282.000000
2820.789551 2271.000000
2821.588623 2350.000000
2822.387695 2251.000000
2823.186523 2225.000000
2823.984863 2277.000000
2824.782227 2197.000000
2825.579834 2171.000000
2826.376709 2237.000000
2827.173828 2126.000000
2827.970215 2302.000000
2828.765869 2147.000000
2829.561523 2090.000000
2830.356934 2181.000000
2831.151855 2156.000000
2831.946045 2236.000000
2832.740234 2181.000000
2833.534180 2167.000000
2834.327637 2230.000000
2835.120361 2177.000000
2835.912842 2192.000000
2836.705322 2235.000000
2837.497559 2126.000000
2838.289307 2108.000000
2839.080078 2122.000000
2839.870850 2124.000000
2840.661865 2125.000000
2841.451904 2164.000000
2842.241455 2175.000000
2843.031250 2120.000000
2843.820068 2003.000000
2844.608887 2106.000000
2845.397705 2015.000000
2846.185547 2038.000000
2846.972900 1948.000000
2847.760498 2049.000000
2848.547607 2049.000000
2849.333984 1938.000000
2850.120361 1968.000000
2850.906494 1997.000000
2851.692139 2018.000000
2852.476807 1929.000000
2853.261963 1996.000000
2854.046875 1904.000000
2854.831055 1986.000000
2855.615234 1932.000000
2856.398193 1823.000000
2857.181396 1868.000000
2857.964355 1940.000000
2858.746826 1923.000000
2859.529053 1900.000000
2860.310791 1953.000000
2861.092285 1869.000000
2861.874023 1943.000000
2862.655029 1977.000000
2863.435303 1772.000000
2864.215332 1977.000000
2864.995361 1902.000000
2865.775146 1954.000000
2866.553955 1777.000000
2867.333008 1927.000000
2868.111572 1997.000000
2868.889893 1935.000000
2869.667725 1939.000000
2870.445313 1950.000000
2871.222656 1999.000000
2871.999756 1898.000000
2872.776367 1930.000000
2873.552490 2003.000000
2874.328613 2008.000000
2875.104248 2014.000000
2875.879639 1976.000000
2876.654541 1940.000000
2877.429199 1878.000000
2878.203857 1955.000000
2878.978271 1972.000000
2879.751953 1885.000000
2880.524902 1940.000000
2881.298584 1901.000000
2882.071289 1974.000000
2882.843994 1936.000000
2883.615967 1874.000000
2884.387695 1928.000000
2885.159912 1850.000000
2885.930908 1861.000000
2886.701416 1761.000000
2887.472412 1873.000000
2888.243408 1868.000000
2889.013672 1744.000000
2889.782959 1845.000000
2890.552490 1853.000000
2891.322021 1822.000000
2892.091064 1823.000000
2892.859619 1776.000000
2893.628174 1762.000000
2894.395752 1795.000000
2895.163818 1808.000000
2895.931396 1762.000000
2896.698975 1719.000000
2897.465332 1813.000000
2898.232666 1758.000000
2898.998779 1672.000000
2899.765137 1587.000000
2900.530029 1687.000000
2901.295410 1630.000000
2902.061279 1747.000000
2902.825684 1531.000000
2903.590088 1802.000000
2904.354736 1667.000000
2905.118408 1696.000000
2905.882813 1737.000000
2906.646484 1698.000000
2907.409424 1748.000000
2908.172119 1703.000000
2908.935303 1651.000000
2909.697998 1705.000000
2910.459473 1651.000000
2911.221436 1651.000000
spectrumdark 2048
-97.009468 6200.000000
-94.382599 6200.000000
-91.757607 6037.000000
-89.134506 6493.000000
-86.513275 5815.000000
-83.893944 6265.000000
-81.276474 6044.000000
-78.660881 6395.000000
-76.047165 6227.000000
-73.435326 5871.000000
-70.825348 6098.000000
-68.217255 5985.000000
-65.611008 5922.000000
-63.006638 6014.000000
-60.404129 6143.000000
-57.803474 5648.000000
-55.204681 6231.000000
-52.607746 6877.000000
-50.012665 6508.000000
-47.419437 6439.000000
-44.828060 6228.000000
-42.238529 6731.000000
-39.650841 5906.000000
-37.065002 6073.000000
-34.481007 6479.000000
-31.898849 5661.000000
-29.318537 6302.000000
-26.740051 5701.000000
-24.163408 6175.000000
-21.588591 6234.000000
-19.015614 6435.000000
-16.444456 6536.000000
-13.875132 6822.000000
-11.307633 7763.000000
-8.741954 6300.000000
-6.178101 6439.000000
-3.616060 6001.000000
-1.055844 5813.000000
1.502564 6130.000000
4.059151 6873.000000
6.613933 6746.000000
9.166899 5986.000000
11.718063 6695.000000
14.267415 6433.000000
16.814970 6706.000000
19.360714 5988.000000
21.904665 5685.000000
24.446812 6671.000000
26.987162 6794.000000
29.525726 6785.000000
32.062496 6165.000000
34.597462 5855.000000
37.130650 7227.000000
39.662056 6329.000000
42.191669 7126.000000
44.719486 6499.000000
47.245544 7806.000000
49.769814 5607.000000
52.292313 6211.000000
54.813015 6749.000000
57.331963 6303.000000
59.849136 6429.000000
62.364532 6675.000000
64.878151 5590.000000
67.390015 5691.000000
69.900131 6566.000000
72.408455 6527.000000
74.915024 5871.000000
77.419846 6328.000000
79.922913 6430.000000
82.424202 6276.000000
84.923752 6126.000000
87.421547 6314.000000
89.917610 5729.000000
92.411896 7264.000000
94.904442 5796.000000
97.395271 6893.000000
99.884331 7148.000000
102.371643 6410.000000
104.857231 6196.000000
107.341080 6384.000000
109.823181 5751.000000
112.303558 6596.000000
114.782211 6148.000000
117.259140 6449.000000
119.734314 7144.000000
122.207779 6794.000000
124.679512 5897.000000
127.149536 6725.000000
129.617798 6238.000000
132.084396 6316.000000
134.549240 5665.000000
137.012390 6190.000000
139.473801 7295.000000
141.933517 6900.000000
144.391510 6325.000000
146.847809 5986.000000
149.302399 5833.000000
151.755264 6791.000000
154.206451 6389.000000
156.655945 6606.000000
159.103714 6121.000000
161.549774 6626.000000
163.994156 8647.000000
166.436859 6366.000000
168.877869 6797.000000
171.317169 6247.000000
173.754761 7281.000000
176.190720 6558.000000
178.624939 6865.000000
181.057480 7142.000000
183.488373 6719.000000
185.917542 7079.000000
188.345062 6668.000000
190.770905 6306.000000
193.195068 6732.000000
195.617569 7158.000000
198.038376 7387.000000
200.457520 6528.000000
202.875000 6009.000000
205.290787 7565.000000
207.704926 7145.000000
210.117432 6335.000000
212.528259 6085.000000
214.937408 6211.000000
217.344925 7394.000000
219.750732 6155.000000
222.154953 6446.000000
224.557465 6682.000000
226.958359 6922.000000
229.357605 6448.000000
231.755188 6886.000000
234.151108 7216.000000
236.545410 6545.000000
238.938049 5872.000000
241.329071 6809.000000
243.718430 6497.000000
246.106171 6380.000000
248.492264 6918.000000
250.876724 6072.000000
253.259537 7847.000000
255.640778 6611.000000
258.020325 6680.000000
260.398285 6480.000000
262.774567 7537.000000
265.149292 7542.000000
267.522369 7770.000000
269.893799 6153.000000
272.263580 6468.000000
274.631805 5834.000000
276.998383 6336.000000
279.363373 6704.000000
281.726746 6047.000000
284.088470 6269.000000
286.448608 7117.000000
288.807129 6000.000000
291.164063 6492.000000
293.519379 6358.000000
295.873108 5982.000000
298.225189 5935.000000
300.575714 6312.000000
302.924652 6360.000000
305.271942 6868.000000
307.617706 6453.000000
309.961792 6451.000000
312.304352 7400.000000
314.645294 7521.000000
316.984619 7152.000000
319.322388 6951.000000
321.658600 8039.000000
323.993164 6209.000000
326.326172 6478.000000
328.657623 6013.000000
330.987488 6786.000000
333.315765 6419.000000
335.642426 7198.000000
337.967590 6297.000000
340.291138 6235.000000
342.613129 6024.000000
344.933563 7527.000000
347.252380 7724.000000
349.569641 5983.000000
351.885376 5826.000000
354.199524 6997.000000
356.512085 6383.000000
358.823090 6369.000000
361.132568 7070.000000
363.440521 6396.000000
365.746857 5671.000000
368.051605 6422.000000
370.354889 6479.000000
372.656555 6205.000000
374.956726 6309.000000
377.255341 6279.000000
379.552399 5777.000000
381.847900 6115.000000
384.141876 5834.000000
386.434265 5167.000000
388.725159 5594.000000
391.014526 6178.000000
393.302307 6266.000000
395.588562 6552.000000
397.873322 6938.000000
400.156464 6073.000000
402.438171 6432.000000
404.718353 6101.000000
406.996948 7265.000000
409.274017 6429.000000
411.549561 6771.000000
413.823578 6545.000000
416.096161 6451.000000
418.367126 6346.000000
420.636597 6498.000000
422.904572 7171.000000
425.170990 7259.000000
427.435913 6230.000000
429.699371 6333.000000
431.961243 6485.000000
434.221649 5954.000000
436.480499 6551.000000
438.737885 6149.000000
440.993774 5635.000000
443.248169 5795.000000
445.501038 5472.000000
447.752350 6874.000000
450.002258 6098.000000
452.250580 6267.000000
454.497467 5679.000000
456.742889 6480.000000
458.986755 6472.000000
461.229126 6809.000000
463.470001 5682.000000
465.709473 6698.000000
467.947357 5521.000000
470.183807 5808.000000
472.418732 6054.000000
474.652191 7320.000000
476.884216 6617.000000
479.114716 5678.000000
481.343719 6416.000000
483.571259 6380.000000
485.797302 5936.000000
488.021912 6542.000000
490.245056 5921.000000
492.466736 6416.000000
494.686859 6688.000000
496.905579 5689.000000
499.122803 6248.000000
501.338654 5511.000000
503.552887 6164.000000
505.765808 6477.000000
507.977142 6427.000000
510.187042 6888.000000
512.395508 6454.000000
514.602600 6620.000000
516.808105 6358.000000
519.012207 6527.000000
521.214783 6141.000000
523.415955 6560.000000
525.615784 6648.000000
527.814087 6844.000000
530.010864 5355.000000
532.206299 5822.000000
534.400208 5621.000000
536.592773 7596.000000
538.783813 6685.000000
540.973450 6010.000000
543.161682 6881.000000
545.348389 7119.000000
547.533630 6797.000000
549.717590 6250.000000
551.899963 6441.000000
554.080994 6210.000000
556.260498 6018.000000
558.438721 5906.000000
560.615417 5968.000000
562.790710 6322.000000
564.964600 6385.000000
567.137024 5873.000000
569.308044 6061.000000
571.477600 6244.000000
573.645874 5253.000000
575.812622 6443.000000
577.977905 6347.000000
580.141785 6114.000000
582.304382 5748.000000
584.465454 5967.000000
586.625122 5675.000000
588.783447 5806.000000
590.940247 6164.000000
593.095703 6577.000000
595.249756 5759.000000
597.402466 6146.000000
599.553650 7169.000000
601.703491 6761.000000
603.851990 6675.000000
605.998901 5947.000000
608.144592 6432.000000
610.288879 6426.000000
612.431702 7014.000000
614.573059 6155.000000
616.713196 6435.000000
618.851807 7628.000000
620.989136 5757.000000
623.125000 6613.000000
625.259460 6903.000000
627.392456 7191.000000
629.524292 6693.000000
631.654663 6467.000000
633.783630 6758.000000
635.911133 6470.000000
638.037354 6251.000000
640.162048 7274.000000
642.285522 6427.000000
644.407654 6820.000000
646.528320 6824.000000
648.647644 6519.000000
650.765564 5669.000000
652.882141 5634.000000
654.997314 6457.000000
657.111145 6433.000000
659.223511 5854.000000
661.334656 6166.000000
663.444397 5364.000000
665.552673 6079.000000
667.659790 6286.000000
669.765442 6768.000000
671.869629 5968.000000
673.972595 5748.000000
676.074158 7046.000000
678.174377 5320.000000
680.273193 6740.000000
682.370667 6228.000000
684.466858 6940.000000
686.561584 6341.000000
688.655090 6961.000000
690.747253 6576.000000
692.837891 8004.000000
694.927307 6617.000000
697.015442 6439.000000
699.102112 6015.000000
701.187561 6697.000000
703.271484 5157.000000
705.354187 5886.000000
707.435608 5919.000000
709.515564 7523.000000
711.594299 6207.000000
713.671570 5530.000000
715.747559 6564.000000
717.822266 6083.000000
719.895691 6999.000000
721.967590 6327.000000
724.038330 7500.000000
726.107727 5836.000000
728.175720 6426.000000
730.242371 6315.000000
732.307800 7051.000000
734.371887 5753.000000
736.434631 6164.000000
738.496033 6365.000000
740.556152 6647.000000
742.614868 6039.000000
744.672363 6598.000000
746.728577 6529.000000
748.783386 6663.000000
750.836914 6390.000000
752.889038 7471.000000
754.939941 5773.000000
756.989624 6707.000000
759.037842 6347.000000
761.084839 6217.000000
763.130554 6943.000000
765.174866 5358.000000
767.217896 5758.000000
769.259705 14951.000000
771.300171 6978.000000
773.339233 6346.000000
775.377136 6088.000000
777.413696 6017.000000
779.449036 5351.000000
781.483032 5724.000000
783.515625 6945.000000
785.547058 5453.000000
787.577087 11455.000000
789.605835 6059.000000
791.633423 6325.000000
793.659668 6311.000000
795.684509 5770.000000
797.708252 5543.000000
799.730591 6335.000000
801.751709 5875.000000
803.771484 6639.000000
805.789978 4889.000000
807.807251 6723.000000
809.823120 6739.000000
811.837830 5751.000000
813.851196 6491.000000
815.863342 6250.000000
817.874268 6098.000000
819.883850 6615.000000
821.892212 5323.000000
823.899170 5751.000000
825.904907 6076.000000
827.909424 5721.000000
829.912659 5671.000000
831.914612 6443.000000
833.915283 6091.000000
835.914734 5921.000000
837.912842 6419.000000
839.909851 7019.000000
841.905457 6195.000000
843.899902 6011.000000
845.893005 6162.000000
847.884888 6803.000000
849.875427 5551.000000
851.864685 6762.000000
853.852905 6003.000000
855.839722 5753.000000
857.825317 6410.000000
859.809631 7263.000000
861.792847 6405.000000
863.774658 6426.000000
865.755249 5850.000000
867.734558 7692.000000
869.712708 7086.000000
871.689514 6186.000000
873.665039 5928.000000
875.639526 6213.000000
877.612549 6064.000000
879.584534 5364.000000
881.555176 6353.000000
883.524658 6056.000000
885.492798 5586.000000
887.459778 5185.000000
889.425415 6168.000000
891.389893 5838.000000
893.353149 6017.000000
895.315186 6501.000000
897.275940 5810.000000
899.235474 6441.000000
901.193726 6708.000000
903.150879 6310.000000
905.106873 6055.000000
907.061462 6909.000000
909.014832 6498.000000
910.967041 6409.000000
912.918030 6332.000000
914.867737 7103.000000
916.816284 6374.000000
918.763611 6133.000000
920.709656 6086.000000
922.654419 6045.000000
924.598145 6303.000000
926.540710 5929.000000
928.481995 5582.000000
930.421936 6493.000000
932.360779 5746.000000
934.298340 5507.000000
936.234680 5971.000000
938.169861 5793.000000
940.103760 6090.000000
942.036560 5897.000000
943.968140 6775.000000
945.898560 5227.000000
947.827759 6395.000000
949.755615 6984.000000
951.682434 6622.000000
953.607971 5955.000000
955.532227 5390.000000
957.455383 6023.000000
959.377380 6705.000000
961.298096 7277.000000
963.217651 6487.000000
965.136047 5308.000000
967.053406 6483.000000
968.969299 6362.000000
970.884094 6162.000000
972.797668 5927.000000
974.710083 6392.000000
976.621277 6515.000000
978.531311 5477.000000
980.440063 6205.000000
982.347778 6127.000000
984.254272 6353.000000
986.159546 5699.000000
988.063721 6738.000000
989.966675 6211.000000
991.868408 6819.000000
993.768982 6442.000000
995.668396 6503.000000
997.566589 5264.000000
999.463623 6583.000000
1001.359436 6507.000000
1003.254089 7697.000000
1005.147644 5551.000000
1007.039917 7173.000000
1008.931274 6075.000000
1010.821289 5319.000000
1012.710083 6650.000000
1014.597717 6335.000000
1016.484192 6882.000000
1018.369507 6743.000000
1020.253662 5955.000000
1022.136597 5881.000000
1024.018433 6183.000000
1025.899048 5165.000000
1027.778564 5831.000000
1029.657104 6083.000000
1031.534302 5439.000000
1033.410156 6171.000000
1035.285034 5914.000000
1037.158936 6575.000000
1039.031372 7027.000000
1040.902832 6619.000000
1042.772949 5515.000000
1044.642090 5548.000000
1046.510010 5775.000000
1048.376831 7043.000000
1050.242554 6706.000000
1052.107056 6455.000000
1053.970459 6461.000000
1055.832520 6466.000000
1057.693604 5903.000000
1059.553589 6504.000000
1061.412231 6658.000000
1063.269775 5790.000000
1065.126221 6752.000000
1066.981567 5950.000000
1068.835693 5776.000000
1070.688965 6232.000000
1072.540771 6368.000000
1074.391602 6188.000000
1076.241211 6120.000000
1078.089600 5716.000000
1079.937134 7940.000000
1081.783325 5609.000000
1083.628296 6220.000000
1085.472412 5472.000000
1087.315186 5537.000000
1089.156738 6536.000000
1090.997559 5479.000000
1092.836792 5809.000000
1094.675293 6024.000000
1096.512451 6082.000000
1098.348389 6841.000000
1100.183350 6578.000000
1102.017090 5415.000000
1103.849854 5669.000000
1105.681274 6181.000000
1107.511841 7246.000000
1109.341064 6544.000000
1111.169312 6458.000000
1112.996338 7091.000000
1114.822388 5391.000000
1116.647217 6325.000000
1118.470947 7160.000000
1120.293457 6088.000000
1122.114868 5878.000000
1123.935425 5855.000000
1125.754517 6611.000000
1127.572754 7048.000000
1129.389648 6896.000000
1131.205688 6688.000000
1133.020508 6498.000000
1134.834229 5631.000000
1136.646851 5768.000000
1138.458252 5644.000000
1140.268677 6076.000000
1142.078003 6685.000000
1143.885986 6998.000000
1145.693237 5965.000000
1147.499023 5873.000000
1149.303955 5400.000000
1151.107788 5339.000000
1152.910400 6052.000000
1154.712158 6107.000000
1156.512451 6050.000000
1158.311768 6080.000000
1160.110107 5875.000000
1161.907104 5464.000000
1163.703369 5991.000000
1165.498291 6064.000000
1167.292114 6365.000000
1169.085083 7635.000000
1170.876709 5772.000000
1172.667358 6566.000000
1174.457031 5996.000000
1176.245239 5747.000000
1178.032593 7447.000000
1179.818848 6864.000000
1181.604004 5768.000000
1183.388062 5948.000000
1185.171021 7663.000000
1186.953003 5870.000000
1188.733765 5909.000000
1190.513550 6381.000000
1192.292236 6856.000000
1194.069946 6678.000000
1195.846436 7169.000000
1197.621826 6519.000000
1199.396118 6510.000000
1201.169312 6704.000000
1202.941650 6460.000000
1204.712646 6662.000000
1206.482788 5635.000000
1208.251709 6080.000000
1210.019531 6285.000000
1211.786499 5773.000000
1213.552124 5904.000000
1215.316772 6946.000000
1217.080322 6512.000000
1218.842773 5923.000000
1220.604370 6658.000000
1222.364746 5848.000000
1224.124023 6284.000000
1225.882446 6049.000000
1227.639648 7047.000000
1229.395752 6464.000000
1231.150757 5504.000000
1232.904907 5949.000000
1234.657715 5822.000000
1236.409546 6027.000000
1238.160522 5888.000000
1239.910156 4940.000000
1241.658936 7023.000000
1243.406372 6541.000000
1245.153076 6587.000000
1246.898560 6484.000000
1248.643188 6372.000000
1250.386475 6731.000000
1252.128784 6687.000000
1253.869995 5330.000000
1255.610352 5081.000000
1257.349609 5804.000000
1259.087646 6583.000000
1260.824829 7138.000000
1262.560791 6076.000000
1264.295776 6418.000000
1266.029785 7289.000000
1267.762817 5983.000000
1269.494629 6196.000000
1271.225464 6481.000000
1272.955078 7272.000000
1274.683838 5947.000000
1276.411499 5687.000000
1278.138062 5521.000000
1279.863770 5559.000000
1281.588135 6432.000000
1283.311646 5166.000000
1285.034180 6903.000000
1286.755737 6634.000000
1288.476074 6114.000000
1290.195435 6696.000000
1291.913696 7261.000000
1293.630981 6474.000000
1295.347290 5796.000000
1297.062378 6332.000000
1298.776489 6232.000000
1300.489624 5783.000000
1302.201904 6460.000000
1303.912964 8313.000000
1305.623047 5260.000000
1307.332031 6333.000000
1309.039795 6671.000000
1310.746948 6996.000000
1312.452637 5786.000000
1314.157593 6877.000000
1315.861572 6179.000000
1317.564331 5966.000000
1319.266113 6541.000000
1320.967041 6053.000000
1322.666626 9094.000000
1324.365356 7317.000000
1326.063354 5540.000000
1327.760010 6518.000000
1329.455566 7167.000000
1331.150269 6837.000000
1332.843750 5765.000000
1334.536377 5405.000000
1336.228149 7384.000000
1337.918579 6290.000000
1339.608276 6518.000000
1341.296875 6091.000000
1342.984375 7630.000000
1344.670898 5689.000000
1346.356323 6769.000000
1348.040771 5961.000000
1349.724365 7271.000000
1351.406738 6393.000000
1353.088135 5922.000000
1354.768677 6554.000000
1356.447998 6675.000000
1358.126709 5906.000000
1359.804077 6639.000000
1361.480347 5809.000000
1363.155640 5556.000000
1364.830200 6522.000000
1366.503540 6484.000000
1368.175903 6827.000000
1369.847290 5211.000000
1371.517700 6848.000000
1373.187012 6165.000000
1374.855347 5625.000000
1376.522827 5930.000000
1378.189209 6478.000000
1379.854614 6232.000000
1381.519043 5895.000000
1383.182251 5914.000000
1384.844849 5661.000000
1386.506104 6341.000000
1388.166504 6532.000000
1389.825806 6363.000000
1391.484131 6493.000000
1393.141724 6854.000000
1394.798096 6498.000000
1396.453613 7024.000000
1398.107910 6326.000000
1399.761353 5867.000000
1401.413696 6144.000000
1403.065308 6428.000000
1404.715698 7176.000000
1406.364990 6293.000000
1408.013550 7459.000000
1409.661011 7928.000000
1411.307495 6185.000000
1412.953125 6232.000000
1414.597778 5970.000000
1416.241211 6959.000000
1417.883789 7121.000000
1419.525269 6847.000000
1421.165894 6492.000000
1422.805542 6437.000000
1424.444092 6022.000000
1426.081787 6614.000000
1427.718384 6343.000000
1429.354004 6081.000000
1430.988892 6414.000000
1432.622681 5869.000000
1434.255371 6160.000000
1435.887085 5687.000000
1437.517944 6142.000000
1439.147705 6061.000000
1440.776367 7799.000000
1442.404419 6017.000000
1444.031372 6254.000000
1445.657104 6148.000000
1447.282227 6191.000000
1448.906250 6510.000000
1450.529297 6031.000000
1452.151367 5973.000000
1453.772339 7301.000000
1455.392334 6354.000000
1457.011597 6885.000000
1458.629517 5627.000000
1460.246826 5568.500000
1461.863159 5510.000000
1463.478271 7197.000000
1465.092529 6339.000000
1466.705933 5203.000000
1468.318237 5581.000000
1469.929688 6301.000000
1471.540283 6318.000000
1473.149658 6047.000000
1474.758057 5970.000000
1476.365601 6150.000000
1477.972168 6738.000000
1479.578003 5360.000000
1481.182617 6186.000000
1482.786377 5472.000000
1484.388916 6813.000000
1485.990845 5581.000000
1487.591553 5488.000000
1489.191528 5612.000000
1490.790405 6201.000000
1492.388428 6478.000000
1493.985352 6738.000000
1495.581421 6356.000000
1497.176514 5940.000000
1498.770630 5446.000000
1500.364014 6541.000000
1501.956299 5513.000000
1503.547363 6148.000000
1505.137939 6697.000000
1506.727173 6425.000000
1508.315796 6146.000000
1509.903320 6559.000000
1511.489746 6872.000000
1513.075439 6162.000000
1514.660034 6562.000000
1516.243774 6409.000000
1517.826416 6027.000000
1519.408325 6557.000000
1520.989136 6624.000000
1522.569214 6008.000000
1524.148071 6247.000000
1525.726074 6398.000000
1527.303345 6243.000000
1528.879395 5752.000000
1530.454712 5884.000000
1532.028931 6326.000000
1533.602417 5505.000000
1535.174683 5951.000000
1536.746216 6385.000000
1538.316772 6440.000000
1539.886475 6297.000000
1541.454956 5447.000000
1543.022705 6643.000000
1544.589600 5631.000000
1546.155273 6801.000000
1547.720215 6034.000000
1549.284058 5083.000000
1550.847290 7490.000000
1552.409180 6251.000000
1553.970459 5978.000000
1555.530640 5708.000000
1557.090088 5759.000000
1558.648438 5944.000000
1560.206055 6307.000000
1561.762573 7104.000000
1563.317871 5872.000000
1564.872559 6382.000000
1566.426514 5652.000000
1567.979492 6299.000000
1569.531128 5733.000000
1571.082031 5873.000000
1572.632202 6237.000000
1574.181396 6329.000000
1575.729248 5755.000000
1577.276611 5582.000000
1578.822998 5827.000000
1580.368530 5091.000000
1581.913086 6702.000000
1583.456421 6403.000000
1584.999146 6633.000000
1586.541016 6455.000000
1588.081787 6771.000000
1589.621582 5828.000000
1591.160645 6691.000000
1592.698608 5918.000000
1594.236084 6135.000000
1595.772217 5871.000000
1597.307251 6705.000000
1598.841797 6223.000000
1600.375366 5996.000000
1601.908081 6070.000000
1603.439209 6302.000000
1604.970093 6271.000000
1606.500122 5770.000000
1608.028931 6140.000000
1609.556641 6153.000000
1611.083740 6024.000000
1612.610107 5846.000000
1614.135498 6217.000000
1615.660034 5761.000000
1617.183228 5802.000000
1618.705688 5637.000000
1620.227417 6584.000000
1621.748291 7002.000000
1623.267700 6629.000000
1624.786621 6256.000000
1626.304810 6086.000000
1627.822144 5948.000000
1629.338379 6428.000000
1630.853271 7027.000000
1632.367676 6788.000000
1633.881348 5780.000000
1635.393921 6833.000000
1636.905273 5956.000000
1638.416260 6411.000000
1639.926147 6216.000000
1641.435181 6133.000000
1642.942871 5587.000000
1644.450195 6093.000000
1645.956665 7122.000000
1647.462158 6177.000000
1648.966797 6826.000000
1650.469971 6151.000000
1651.972534 6523.000000
1653.474731 6396.000000
1654.975586 6670.000000
1656.475342 7553.000000
1657.974243 5923.000000
1659.472778 6527.000000
1660.970093 6273.000000
1662.466675 5952.000000
1663.961670 6462.000000
1665.456421 6314.000000
1666.950317 5255.000000
1668.443237 5694.000000
1669.934814 6085.000000
1671.425903 6476.000000
1672.916382 6104.000000
1674.405762 5998.000000
1675.893677 6936.000000
1677.381348 6883.000000
1678.868042 6016.000000
1680.353882 5356.000000
1681.838867 6069.000000
1683.322388 6133.000000
1684.805664 6174.000000
1686.288086 5952.000000
1687.769409 6217.000000
1689.249268 6162.000000
1690.728882 5463.000000
1692.207764 6560.000000
1693.685669 5628.000000
1695.162598 6095.000000
1696.638306 5788.000000
1698.113647 6010.000000
1699.587769 6292.000000
1701.061279 5489.000000
1702.533325 5511.000000
1704.005127 6920.000000
1705.475952 6404.000000
1706.945923 7297.000000
1708.414551 5171.000000
1709.882690 5779.000000
1711.350098 6320.000000
1712.816406 5524.000000
1714.282104 5739.000000
1715.746094 6151.000000
1717.209961 5987.000000
1718.672974 7005.000000
1720.135010 6357.000000
1721.595825 6570.000000
1723.056030 5486.000000
1724.515503 6403.000000
1725.974121 6095.000000
1727.431763 5998.000000
1728.888062 6212.000000
1730.344116 6060.000000
1731.799194 6466.000000
1733.253296 6075.000000
1734.706177 6913.000000
1736.158813 5949.000000
1737.610352 6741.000000
1739.061157 5965.000000
1740.510986 6522.000000
1741.959473 5902.000000
1743.407593 7631.000000
1744.854858 6514.000000
1746.301392 6626.000000
1747.746338 6732.000000
1749.191040 6093.000000
1750.634888 5870.000000
1752.077881 5520.000000
1753.519409 6597.000000
1754.960693 6348.000000
1756.401123 6304.000000
1757.840576 6260.000000
1759.279053 5237.000000
1760.716553 6098.000000
1762.153564 7576.000000
1763.589600 5900.000000
1765.024780 7117.000000
1766.458496 6275.000000
1767.892090 6505.000000
1769.324707 6625.000000
1770.756470 5761.000000
1772.187378 5743.000000
1773.617065 6383.000000
1775.046021 6219.000000
1776.474487 6282.000000
1777.901978 6682.000000
1779.328125 6347.000000
1780.754028 5611.000000
1782.178833 6907.000000
1783.603027 5608.000000
1785.025757 6637.000000
1786.447998 6522.000000
1787.869507 6835.000000
1789.290283 5883.000000
1790.710083 6053.000000
1792.128540 6182.000000
1793.546509 6892.000000
1794.963867 5523.000000
1796.380371 6107.000000
1797.795410 6527.000000
1799.210083 5864.000000
1800.624146 6557.000000
1802.036987 5975.000000
1803.449219 6998.000000
1804.860107 7127.000000
1806.270508 7777.000000
1807.680176 6486.000000
1809.088867 5951.000000
1810.496460 5421.000000
1811.903564 6375.000000
1813.309814 6378.000000
1814.715088 6725.000000
1816.119263 5935.000000
1817.523071 5950.000000
1818.925903 6242.000000
1820.327881 5985.000000
1821.729248 5891.000000
1823.129150 6362.000000
1824.528442 6513.000000
1825.927246 6569.000000
1827.325195 7423.000000
1828.721802 5778.000000
1830.117798 6701.000000
1831.513062 5915.000000
1832.907715 8146.000000
1834.301392 6038.000000
1835.693726 6841.000000
1837.085571 6394.000000
1838.476807 5855.000000
1839.867065 7141.000000
1841.256104 5996.000000
1842.644775 6050.000000
1844.032471 5925.000000
1845.419434 5810.000000
1846.805054 6938.000000
1848.190430 5860.000000
1849.574951 6368.000000
1850.958740 6278.000000
1852.341431 6373.000000
1853.722900 5369.000000
1855.103882 6524.000000
1856.484375 6285.000000
1857.863892 5756.000000
1859.241943 5946.000000
1860.619873 6303.000000
1861.996826 7888.000000
1863.373047 6071.000000
1864.748413 6049.000000
1866.122314 5620.000000
1867.496094 5746.000000
1868.869019 6200.000000
1870.240845 5934.000000
1871.611694 6939.000000
1872.982178 5420.000000
1874.351563 6048.000000
1875.720459 6152.000000
1877.087769 7157.000000
1878.454956 6074.000000
1879.821167 6029.000000
1881.186646 6816.000000
1882.551392 7465.000000
1883.914551 6722.000000
1885.277588 6957.000000
1886.639771 6335.000000
1888.001099 6476.000000
1889.361084 5582.000000
1890.720703 5801.000000
1892.079712 6163.000000
1893.437744 6635.000000
1894.794922 7305.000000
1896.150879 5936.000000
1897.506592 7607.000000
1898.861328 5867.000000
1900.215210 5531.000000
1901.567993 5902.000000
1902.920288 5964.000000
1904.271851 5986.000000
1905.622559 6902.000000
1906.972046 6579.000000
1908.321045 6693.000000
1909.669189 5801.000000
1911.016724 6129.000000
1912.363525 6288.000000
1913.708740 6771.000000
1915.053711 6114.000000
1916.397949 5422.000000
1917.741333 6486.000000
1919.083374 5984.000000
1920.425171 6750.000000
1921.766113 7013.000000
1923.106323 6173.000000
1924.445557 6308.000000
1925.783813 6261.000000
1927.121460 6429.000000
1928.458374 7022.000000
1929.794434 6802.000000
1931.129272 5641.000000
1932.463745 6602.000000
1933.797485 7282.000000
1935.130371 6248.000000
1936.461792 5733.000000
1937.793335 6339.000000
1939.123535 6717.000000
1940.453247 5781.000000
1941.782104 6025.000000
1943.109741 5783.000000
1944.436890 4967.000000
1945.763306 5910.000000
1947.088989 6531.000000
1948.413330 5782.000000
1949.737427 6635.000000
1951.060669 6306.000000
1952.383179 6397.000000
1953.704590 5802.000000
1955.025024 7384.000000
1956.344849 5987.000000
1957.664307 5569.000000
1958.982788 6798.000000
1960.299927 5897.000000
1961.616699 5852.000000
1962.932739 6495.000000
1964.248047 6595.000000
1965.561890 6269.000000
1966.875488 5726.000000
1968.188354 6248.000000
1969.500366 6011.000000
1970.811768 6058.000000
1972.121826 6382.000000
1973.431396 5821.000000
1974.740234 6204.000000
1976.048462 6562.000000
1977.355347 6105.000000
1978.661621 7297.000000
1979.967529 5494.000000
1981.272217 6448.000000
1982.576416 5917.000000
1983.879395 5711.000000
1985.182007 7490.000000
1986.483643 6200.000000
1987.784668 6792.000000
1989.084106 6058.000000
1990.383667 6550.000000
1991.682129 5301.000000
1992.980103 6080.000000
1994.276489 6121.000000
1995.572876 5797.000000
1996.868286 5604.000000
1998.162964 6483.000000
1999.456787 5720.000000
2000.749390 6535.000000
2002.041504 5791.000000
2003.333130 7157.000000
2004.624023 6438.000000
2005.913330 6201.000000
2007.202393 6878.000000
2008.490723 5939.000000
2009.778320 6003.000000
2011.065063 6600.000000
2012.350708 5658.000000
2013.635986 6268.000000
2014.920288 6010.000000
2016.203979 5602.000000
2017.486328 6069.000000
2018.768311 6525.000000
2020.049805 6781.000000
2021.330322 5916.000000
2022.610107 6096.000000
2023.888794 6763.000000
2025.166748 5835.000000
2026.444214 5898.000000
2027.721069 6313.000000
2028.996216 5780.000000
2030.271484 6594.000000
2031.545776 6074.000000
2032.819092 5996.000000
2034.091553 5930.000000
2035.363647 6188.000000
2036.634644 6993.000000
2037.905396 6584.000000
2039.174805 6041.000000
2040.443115 6909.000000
2041.711426 6604.000000
2042.978760 5906.000000
2044.245361 5976.000000
2045.510742 5667.000000
2046.775513 5371.000000
2048.040039 5457.000000
2049.303467 5857.000000
2050.566406 6381.000000
2051.827393 6131.000000
2053.088867 6090.000000
2054.349121 5830.000000
2055.608643 6463.000000
2056.867432 6270.000000
2058.125244 6887.000000
2059.382568 6145.000000
2060.639160 5937.000000
2061.894287 6482.000000
2063.149414 5608.000000
2064.403564 5622.000000
2065.656982 5687.000000
2066.909668 6871.000000
2068.161133 6284.000000
2069.412354 6312.000000
2070.662842 5649.000000
2071.912598 5438.000000
2073.160889 6147.000000
2074.409180 6480.000000
2075.656494 7405.000000
2076.903076 5563.000000
2078.148926 6080.000000
2079.393555 7023.000000
2080.637695 7641.000000
2081.881348 5494.000000
2083.124023 6023.000000
2084.365479 6980.000000
2085.606689 5919.000000
2086.847412 6299.000000
2088.087158 6781.000000
2089.325684 7147.000000
2090.563721 6077.000000
2091.801025 5819.000000
2093.038086 6658.000000
2094.273682 6058.000000
2095.508545 6218.000000
2096.743164 6038.000000
2097.976807 5678.000000
2099.209473 6085.000000
2100.441406 6773.000000
2101.672852 6368.000000
2102.903320 6824.000000
2104.133057 6045.000000
2105.362549 5995.000000
2106.590088 6018.000000
2107.817871 5985.000000
2109.044922 6368.000000
2110.270996 5466.000000
2111.495605 6419.000000
2112.720459 7021.000000
2113.944092 7058.000000
2115.167236 6248.000000
2116.389160 7529.000000
2117.610840 5982.000000
2118.831543 6786.000000
2120.051514 6097.000000
2121.270996 6084.000000
2122.489014 6562.000000
2123.707031 7092.000000
2124.924072 5709.000000
2126.140625 5859.000000
2127.355469 6521.000000
2128.570557 6328.000000
2129.784668 6949.000000
2130.998047 5707.000000
2132.210693 6063.000000
2133.421875 5846.000000
2134.633301 6489.000000
2135.843506 6815.000000
2137.053223 5883.000000
2138.261475 6127.000000
2139.469727 5660.000000
2140.677246 5866.000000
2141.883545 7715.000000
2143.089111 5914.000000
2144.294434 5675.000000
2145.498779 5540.000000
2146.702393 6304.000000
2147.905518 6190.000000
2149.107178 6393.000000
2150.308594 5326.000000
2151.509277 6325.000000
2152.709229 6160.000000
2153.907959 5973.000000
2155.106445 6959.000000
2156.304443 6188.000000
2157.501465 6039.000000
2158.697754 5180.000000
2159.892822 5314.000000
2161.087646 6183.000000
2162.281738 5564.000000
2163.474854 6067.000000
2164.666992 6869.000000
2165.858887 5864.000000
2167.050049 6343.000000
2168.240234 6305.000000
2169.429688 6503.000000
2170.618652 6822.000000
2171.806641 6025.000000
2172.994385 5738.000000
2174.180664 5906.000000
2175.366211 6610.000000
2176.551514 6033.000000
2177.736328 5831.000000
2178.919922 6384.000000
2180.102783 7460.000000
2181.284668 6325.000000
2182.466309 5951.000000
2183.647461 6578.000000
2184.827393 5749.000000
2186.006348 5560.000000
2187.184814 6350.000000
2188.363037 6894.000000
2189.540039 7213.000000
2190.716064 6710.000000
2191.891846 6049.000000
2193.067139 5601.000000
2194.240967 6612.000000
2195.414307 6174.000000
2196.587402 6165.000000
2197.759277 6594.000000
2198.930664 7090.000000
2200.101563 6320.000000
2201.270752 6900.000000
2202.439941 7571.000000
2203.608643 6277.000000
2204.776367 5917.000000
2205.943115 5653.000000
2207.109131 7209.000000
2208.274658 6630.000000
2209.439941 5950.000000
2210.603760 6691.000000
2211.767090 5394.000000
2212.929199 6187.000000
2214.091553 6129.000000
2215.252686 6657.000000
2216.412842 6634.000000
2217.572510 6312.000000
2218.731934 6655.000000
2219.890137 6335.000000
2221.047363 6286.000000
2222.204346 6797.000000
2223.360596 6660.000000
2224.516113 6779.000000
2225.670898 6295.000000
2226.824707 6457.000000
2227.977539 6038.000000
2229.130859 6836.000000
2230.282227 6246.000000
2231.433350 6174.000000
2232.583740 6510.000000
2233.733643 7716.000000
2234.882568 6296.000000
2236.031006 5212.000000
2237.177979 6793.000000
2238.325195 7109.000000
2239.471191 6024.000000
2240.616943 7240.000000
2241.760986 7321.000000
2242.905273 6730.000000
2244.048584 6182.000000
2245.191162 5964.000000
2246.332764 5765.000000
2247.474121 5874.000000
2248.614502 6404.000000
2249.754150 6428.000000
2250.893311 5808.000000
2252.031250 5851.000000
2253.169189 6224.000000
2254.306152 5344.000000
2255.442383 6365.000000
2256.577637 6209.000000
2257.712158 7259.000000
2258.846436 6432.000000
2259.980225 5420.000000
2261.112549 6122.000000
2262.244385 6835.000000
2263.375732 6211.000000
2264.506104 6485.000000
2265.636230 8117.000000
2266.765137 6757.000000
2267.893555 6094.000000
2269.021484 5578.000000
2270.148438 6139.000000
2271.274658 5939.000000
2272.399902 6735.000000
2273.525146 6512.000000
2274.649658 6413.000000
2275.772949 5950.000000
2276.895508 6359.000000
2278.017578 5986.000000
2279.139160 7397.000000
2280.260010 6419.000000
2281.379639 6441.000000
2282.498779 7154.000000
2283.617676 7637.000000
2284.735840 7219.000000
2285.853027 5954.000000
2286.969238 6438.000000
2288.085205 6980.000000
2289.200439 6919.000000
2290.314941 7410.000000
2291.428223 5856.000000
2292.541504 6341.000000
2293.654053 6024.000000
2294.765869 5322.000000
2295.876953 6796.000000
2296.986816 6429.000000
2298.096191 6210.000000
2299.205322 6644.000000
2300.313477 6293.000000
2301.420654 6797.000000
2302.527588 5842.000000
2303.633789 6236.000000
2304.739502 6609.000000
2305.843750 6575.000000
2306.947754 5414.000000
2308.051270 5745.000000
2309.154297 6573.000000
2310.256104 7463.000000
2311.357178 7367.000000
2312.457764 6557.000000
2313.557861 5518.000000
2314.657227 6362.000000
2315.755127 6554.000000
2316.853516 7006.000000
2317.950439 8171.000000
2319.047119 6877.000000
2320.143311 5820.000000
2321.237793 6908.000000
2322.332275 7560.000000
2323.426025 5775.000000
2324.519531 6042.000000
2325.611328 6457.000000
2326.703125 6968.000000
2327.794189 6084.000000
2328.884521 6319.000000
2329.973877 6961.000000
2331.063232 5987.000000
2332.151367 6317.000000
2333.239014 6733.000000
2334.326416 6554.000000
2335.412109 6655.000000
2336.497559 7835.000000
2337.582764 6258.000000
2338.666992 6739.000000
2339.750244 5897.000000
2340.833252 6463.000000
2341.915283 7194.000000
2342.997070 5996.000000
2344.078125 7426.000000
2345.157959 6662.000000
2346.237305 5702.000000
2347.316162 6793.000000
2348.394531 6489.000000
2349.471436 6297.000000
2350.548096 6997.000000
2351.624512 6036.000000
2352.699951 6431.000000
2353.774414 5886.000000
2354.848633 6375.000000
2355.922119 6751.000000
2356.995117 6264.000000
2358.066895 6975.000000
2359.138428 6289.000000
2360.208984 6834.000000
2361.279297 7582.000000
2362.348633 7537.000000
2363.416992 6802.000000
2364.485107 6767.000000
2365.552490 7141.000000
2366.619385 7188.000000
2367.685547 6079.000000
2368.750488 6868.000000
2369.815430 6927.000000
2370.879639 6358.000000
2371.943115 6937.000000
2373.005371 5778.000000
2374.067627 6356.000000
2375.128906 6351.000000
2376.189941 5920.000000
2377.249756 6266.000000
2378.308838 7868.000000
2379.367920 6516.000000
2380.426025 7643.000000
2381.483398 6868.000000
2382.539795 8048.000000
2383.595947 7820.000000
2384.651611 6272.000000
2385.706543 7058.000000
2386.760010 6733.000000
2387.813721 6565.000000
2388.866455 6268.000000
2389.918701 6740.000000
2390.970215 6137.000000
2392.020752 6622.000000
2393.071045 6467.000000
2394.120361 6297.000000
2395.169678 6205.000000
2396.217529 6887.000000
2397.264893 6976.000000
2398.312012 6343.000000
2399.358154 6686.000000
2400.403564 6163.000000
2401.448242 6763.000000
2402.492920 7721.000000
2403.536133 7526.000000
2404.579346 6588.000000
2405.621094 5746.000000
2406.663086 6634.000000
2407.704346 7115.000000
2408.744629 6077.000000
2409.784180 6397.000000
2410.822754 6300.000000
2411.861572 5900.000000
2412.899170 6555.000000
2413.936523 6890.000000
2414.972656 7355.000000
2416.008545 6192.000000
2417.043701 6276.000000
2418.078369 6694.000000
2419.111572 7236.000000
2420.145020 6454.000000
2421.177490 6708.000000
2422.209717 6836.000000
2423.240479 7081.000000
2424.271240 6376.000000
2425.301514 6861.000000
2426.330566 6913.000000
2427.359619 6648.000000
2428.386963 7371.000000
2429.414795 6640.000000
2430.441406 7251.000000
2431.467773 6954.000000
2432.492676 7741.000000
2433.517822 6547.000000
2434.541992 7116.000000
2435.565918 6663.000000
2436.588623 5824.000000
2437.610596 6367.000000
2438.632324 6607.000000
2439.653320 6669.000000
2440.673828 6035.000000
2441.693115 6496.000000
2442.712402 6570.000000
2443.730713 8474.000000
2444.748779 6287.000000
2445.765381 6467.000000
2446.781982 6581.000000
2447.797852 6052.000000
2448.813721 7049.000000
2449.828125 6838.000000
2450.841797 5554.000000
2451.854980 7223.000000
2452.867920 5981.000000
2453.880127 7158.000000
2454.891357 6660.000000
2455.902344 7685.000000
2456.912598 6371.000000
2457.922363 7558.000000
2458.931152 5885.000000
2459.939209 5964.000000
2460.947266 6314.000000
2461.954102 7374.000000
2462.960693 5432.000000
2463.966064 7414.000000
2464.971191 6864.000000
2465.976074 5840.000000
2466.979736 6597.000000
2467.983154 6417.000000
2468.985596 7589.000000
2469.987793 7369.000000
2470.989502 6841.000000
2471.990234 6531.000000
2472.989990 6958.000000
2473.989746 6711.000000
2474.988525 5682.000000
2475.986816 6575.000000
2476.984131 6963.000000
2477.981201 6108.000000
2478.978271 6998.000000
2479.973877 5888.000000
2480.969482 7150.000000
2481.963379 6682.000000
2482.957275 8069.000000
2483.950684 6896.000000
2484.943604 6749.000000
2485.935547 7456.000000
2486.926758 7249.000000
2487.917725 6722.000000
2488.908203 5801.000000
2489.897705 6562.000000
2490.886475 6537.000000
2491.875244 5719.000000
2492.863037 6808.000000
2493.849609 6551.000000
2494.836182 8045.000000
2495.822266 6706.000000
2496.807617 7027.000000
2497.791992 8060.000000
2498.776123 5986.000000
2499.760254 6894.000000
2500.742920 5816.000000
2501.725098 6922.000000
2502.706787 6861.000000
2503.687744 7221.000000
2504.668213 6525.000000
2505.648438 5776.000000
2506.627197 6300.000000
2507.605713 7595.000000
2508.583740 6679.000000
2509.561279 7058.000000
2510.537842 6064.000000
2511.514160 5937.000000
2512.489746 6439.000000
2513.464844 6250.000000
2514.439453 6432.000000
2515.412842 7541.000000
2516.385986 6794.000000
2517.358887 6947.000000
2518.330811 6125.000000
2519.302002 6776.000000
2520.272705 6874.000000
2521.243164 7821.000000
2522.212891 8119.000000
2523.181641 6103.000000
2524.149658 6152.000000
2525.117676 7680.000000
2526.084717 6294.000000
2527.051514 5534.000000
2528.017090 7246.000000
2528.982666 7012.000000
2529.947510 7737.000000
2530.911865 6333.000000
2531.875000 6356.000000
2532.838379 5861.000000
2533.800781 5928.000000
2534.762939 6667.000000
2535.723877 6371.000000
2536.684082 6104.000000
2537.644531 6126.000000
2538.604004 6700.000000
2539.562744 6822.000000
2540.520508 6707.000000
2541.478516 6224.000000
2542.435791 6736.000000
2543.392090 6040.000000
2544.348145 7061.000000
2545.302979 6186.000000
2546.258057 7756.000000
2547.212402 7001.000000
2548.166016 6925.000000
2549.118652 7251.000000
2550.071045 6800.000000
2551.022949 7020.000000
2551.974121 6382.000000
2552.924561 7735.000000
2553.874512 7306.000000
2554.824219 7420.000000
2555.773193 6588.000000
2556.721680 6264.000000
2557.668945 7091.000000
2558.616211 6276.000000
2559.562744 6540.000000
2560.508789 6728.000000
2561.453857 7581.000000
2562.398682 6703.000000
2563.343018 7145.000000
2564.286865 6809.000000
2565.230225 6660.000000
2566.172119 6542.000000
2567.114258 6562.000000
2568.055664 6178.000000
2568.996338 7127.000000
2569.936279 7281.000000
2570.876221 5700.000000
2571.815186 6185.000000
2572.753906 7521.000000
2573.691650 7203.000000
2574.629150 5438.000000
2575.565918 6984.000000
2576.501953 6827.000000
2577.437500 7443.000000
2578.372314 6463.000000
2579.307129 6004.000000
2580.240967 7072.000000
2581.174316 7023.000000
2582.106934 5883.000000
2583.039307 6943.000000
2583.970947 5460.000000
2584.902100 6973.000000
2585.832764 7067.000000
2586.762207 6866.000000
2587.691650 7251.000000
2588.620605 6488.000000
2589.549316 7427.000000
2590.476318 7306.000000
2591.403564 5853.000000
2592.330322 6791.000000
2593.256348 6268.000000
2594.182129 5590.000000
2595.106689 7629.000000
2596.031006 7610.000000
2596.954834 5358.000000
2597.878174 7296.000000
2598.800537 6265.000000
2599.722656 6846.000000
2600.644287 8308.000000
2601.565186 6345.000000
2602.485352 5797.000000
2603.405273 6335.000000
2604.324707 6405.000000
2605.243896 6385.000000
2606.162109 5863.000000
2607.079102 5994.000000
2607.996338 7307.000000
2608.913330 5803.000000
2609.829346 7647.000000
2610.744141 6615.000000
2611.659424 6600.000000
2612.573975 6555.000000
2613.487549 6622.000000
2614.401123 6110.000000
2615.313477 7587.000000
2616.225830 7033.000000
2617.137207 6751.000000
2618.048340 5685.000000
2618.958740 7256.000000
2619.868896 6602.000000
2620.778320 6130.000000
2621.687256 6614.000000
2622.595215 6263.000000
2623.503418 6809.000000
2624.410645 6684.000000
2625.317383 6997.000000
2626.223389 6037.000000
2627.129150 6590.000000
2628.034180 6435.000000
2628.938965 7769.000000
2629.843018 6515.000000
2630.746094 6403.000000
2631.649170 6445.000000
2632.551270 5619.000000
2633.453369 6791.000000
2634.355225 6930.000000
2635.255371 6743.000000
2636.155762 6442.000000
2637.055420 6447.000000
2637.954834 5963.000000
2638.852783 6976.000000
2639.751221 6703.000000
2640.649170 6337.000000
2641.546387 6091.000000
2642.442383 6170.000000
2643.338379 6880.000000
2644.234131 6102.000000
2645.129150 6502.000000
2646.023926 6626.000000
2646.917236 7245.000000
2647.810547 6316.000000
2648.703613 6824.000000
2649.596436 6436.000000
2650.487549 7468.000000
2651.378906 6438.000000
2652.269775 7592.000000
2653.159912 7312.000000
2654.049805 6524.000000
2654.938477 7272.000000
2655.827393 6612.000000
2656.715820 6589.000000
2657.603271 7308.000000
2658.489746 6425.000000
2659.376709 7125.000000
2660.262939 6836.000000
2661.148682 6886.000000
2662.033203 6489.000000
2662.917725 6390.000000
2663.802002 6210.000000
2664.685547 7064.000000
2665.568604 7769.000000
2666.450928 7323.000000
2667.332764 6153.000000
2668.213867 6648.000000
2669.095215 6041.000000
2669.975098 6542.000000
2670.855225 7387.000000
2671.734619 7218.000000
2672.614014 6349.000000
2673.492676 6158.000000
2674.369629 6385.000000
2675.247314 6834.000000
2676.124268 6301.000000
2677.000488 8126.000000
2677.876221 7145.000000
2678.751221 6291.000000
2679.626465 7757.000000
2680.500732 6979.000000
2681.374512 7425.000000
2682.247559 6982.000000
2683.120361 6190.000000
2683.992920 6099.000000
2684.864746 6975.000000
2685.735840 6535.000000
2686.606689 6888.000000
2687.477051 7125.000000
2688.347168 6667.000000
2689.215576 6282.000000
2690.084717 7358.000000
2690.953125 7117.000000
2691.821289 6771.000000
2692.688721 6894.000000
2693.554932 5884.000000
2694.421631 7153.000000
2695.287354 7411.000000
2696.153076 7214.000000
2697.017334 7896.000000
2697.882324 6561.000000
2698.745850 7251.000000
2699.609619 5854.000000
2700.471924 7461.000000
2701.334717 6773.000000
2702.196533 5886.000000
2703.057861 6875.000000
2703.919189 6680.000000
2704.779297 7439.000000
2705.639404 7335.000000
2706.499023 6544.000000
2707.358398 6851.000000
2708.216064 7144.000000
2709.073975 6874.000000
2709.932373 7279.000000
2710.789551 6729.000000
2711.645996 5935.000000
2712.501953 6853.000000
2713.357910 6117.000000
2714.213135 6902.000000
2715.067627 6174.000000
2715.921631 6843.000000
2716.775635 7298.000000
2717.628662 6259.000000
2718.481934 6604.000000
2719.333496 7728.000000
2720.185547 6787.000000
2721.037354 6281.000000
2721.887939 6510.000000
2722.738525 6405.000000
2723.588623 7100.000000
2724.437988 7018.000000
2725.287354 6914.000000
2726.135498 6632.000000
2726.983154 6486.000000
2727.831299 7029.000000
2728.678223 6812.000000
2729.525635 5541.000000
2730.371582 7504.000000
2731.216797 7068.000000
2732.062500 6467.000000
2732.907227 6968.000000
2733.751953 7378.000000
2734.595459 6881.000000
2735.439209 7785.000000
2736.282227 7051.000000
2737.124756 6037.000000
2737.966309 6216.000000
2738.808350 6867.000000
2739.649414 6846.000000
2740.490234 5787.000000
2741.330811 5911.000000
2742.170166 7740.000000
2743.009521 6898.000000
2743.848877 6949.000000
2744.687012 6815.000000
2745.524658 7843.000000
2746.362305 6296.000000
2747.199463 7124.000000
2748.036377 6082.000000
2748.872803 5990.000000
2749.708008 6651.000000
2750.543457 6296.000000
2751.378418 6305.000000
2752.212646 6244.000000
2753.046631 6868.000000
2753.880127 6814.000000
2754.713623 7961.000000
2755.546143 6854.000000
2756.378174 7264.000000
2757.209717 6813.000000
2758.041260 7124.000000
2758.871826 7219.000000
2759.702637 7245.000000
2760.532227 7249.000000
2761.361816 6699.000000
2762.191162 7313.000000
2763.019775 6902.000000
2763.847900 6758.000000
2764.675537 6803.000000
2765.503174 6606.000000
2766.330322 7890.000000
2767.156738 5800.000000
2767.982666 7505.000000
2768.808105 6959.000000
2769.633301 7833.000000
2770.458496 7053.000000
2771.282471 6788.000000
2772.106445 6535.000000
2772.930420 7650.000000
2773.753174 6623.000000
2774.576172 6954.000000
2775.397949 6900.000000
2776.219727 6986.000000
2777.041504 6565.000000
2777.862305 8046.000000
2778.682373 6557.000000
2779.502686 7013.000000
2780.322510 7272.000000
2781.142334 6463.000000
2781.960205 5941.000000
2782.779297 8010.000000
2783.597168 6494.000000
2784.414795 6716.000000
2785.231934 7166.000000
2786.048584 7283.000000
2786.864990 7217.000000
2787.680908 6349.000000
2788.496582 5997.000000
2789.311279 6397.000000
2790.126465 7023.000000
2790.940918 7083.000000
2791.754883 6594.000000
2792.568604 7391.000000
2793.381104 8750.000000
2794.193848 6926.000000
2795.006104 7418.000000
2795.817871 7209.000000
2796.628906 7335.000000
2797.440674 6540.000000
2798.251221 7236.000000
2799.061768 7009.000000
2799.870850 7418.000000
2800.680664 8243.000000
2801.489746 7869.000000
2802.298584 6616.000000
2803.106934 7218.000000
2803.914307 6200.000000
2804.722168 6523.000000
2805.529297 6919.000000
2806.336182 7012.000000
2807.141846 7165.000000
2807.947998 6637.000000
2808.753418 6482.000000
2809.558838 7315.000000
2810.363525 6221.000000
2811.167236 7606.000000
2811.971436 7514.000000
2812.775146 6353.000000
2813.578613 6071.000000
2814.380615 6611.000000
2815.183350 7292.000000
2815.985352 7817.000000
2816.787109 6119.000000
2817.588379 6583.000000
2818.389160 7306.000000
2819.189453 6525.000000
2819.989990 6670.000000
2820.789551 7990.000000
2821.588623 7127.000000
2822.387695 6441.000000
2823.186523 6827.000000
2823.984863 6348.000000
2824.782227 7065.000000
2825.579834 7419.000000
2826.376709 6703.000000
2827.173828 7431.000000
2827.970215 7897.000000
2828.765869 7218.000000
2829.561523 7367.000000
2830.356934 7543.000000
2831.151855 7435.000000
2831.946045 6578.000000
2832.740234 6877.000000
2833.534180 5635.000000
2834.327637 6830.000000
2835.120361 7122.000000
2835.912842 8165.000000
2836.705322 7606.000000
2837.497559 7530.000000
2838.289307 6452.000000
2839.080078 6804.000000
2839.870850 8883.000000
2840.661865 7377.000000
2841.451904 6236.000000
2842.241455 7593.000000
2843.031250 7181.000000
2843.820068 7387.000000
2844.608887 7751.000000
2845.397705 7717.000000
2846.185547 7547.000000
2846.972900 7235.000000
2847.760498 7471.000000
2848.547607 7298.000000
2849.333984 6639.000000
2850.120361 7483.000000
2850.906494 7238.000000
2851.692139 7554.000000
2852.476807 7181.000000
2853.261963 6922.000000
2854.046875 7435.000000
2854.831055 7116.000000
2855.615234 6980.000000
2856.398193 8338.000000
2857.181396 6853.000000
2857.964355 6735.000000
2858.746826 7793.000000
2859.529053 6281.000000
2860.310791 6633.000000
2861.092285 7574.000000
2861.874023 7447.000000
2862.655029 7567.000000
2863.435303 6610.000000
2864.215332 6699.000000
2864.995361 8169.000000
2865.775146 7402.000000
2866.553955 8223.000000
2867.333008 7709.000000
2868.111572 6811.000000
2868.889893 6987.000000
2869.667725 7225.000000
2870.445313 6946.000000
2871.222656 7438.000000
2871.999756 7027.000000
2872.776367 6451.000000
2873.552490 7434.000000
2874.328613 7132.000000
2875.104248 8272.000000
2875.879639 7207.000000
2876.654541 6670.000000
2877.429199 8044.000000
2878.203857 6637.000000
2878.978271 7832.000000
2879.751953 6838.000000
2880.524902 7136.000000
2881.298584 6756.000000
2882.071289 7570.000000
2882.843994 7805.000000
2883.615967 8220.000000
2884.387695 6168.000000
2885.159912 6816.000000
2885.930908 6928.000000
2886.701416 6214.000000
2887.472412 8304.000000
2888.243408 7328.000000
2889.013672 8004.000000
2889.782959 7601.000000
2890.552490 6889.000000
2891.322021 7252.000000
2892.091064 7349.000000
2892.859619 7924.000000
2893.628174 7715.000000
2894.395752 7014.000000
2895.163818 6580.000000
2895.931396 7434.000000
2896.698975 8357.000000
2897.465332 7330.000000
2898.232666 6525.000000
2898.998779 7264.000000
2899.765137 7037.000000
2900.530029 8318.000000
2901.295410 7021.000000
2902.061279 6455.000000
2902.825684 7841.000000
2903.590088 7650.000000
2904.354736 8432.000000
2905.118408 6666.000000
2905.882813 8463.000000
2906.646484 6659.000000
2907.409424 8365.000000
2908.172119 6480.000000
2908.935303 9077.000000
2909.697998 6979.000000
2910.459473 6791.000000
2911.221436 6791.000000
