scanname Analyse126
timestamp 2017-02-10 23:19:13
ccdbias 953.053223
ccdgain 3.473401
sigmaread 8.960639
laserwavenum -0.545909
wavenumcorrection -0.022945
scancount 1
totalexposurems 10000
singleexposurems 10000
measurementstate Unknown
scanmode Manual
snr 114.187286 3.946282 3.331525
replacelist 1
948 22754.000000 8042.000000
peaks 10
438.583496 0.284307 0.000000 0.071924 0.000009
811.726501 0.270388 0.000000 0.099259 0.000047
880.170532 0.317060 0.000000 2.743661 0.000531
1047.272339 0.265385 0.000000 0.519150 0.000099
1086.400635 0.266882 0.000000 0.311755 0.000082
1275.121460 0.243282 0.000000 0.163587 0.000023
1318.663818 0.280306 0.000000 12.662395 0.003525
1455.053955 0.262635 0.000000 0.715835 0.000307
1681.567871 0.212057 0.000000 0.220660 0.000046
2328.962402 0.134350 0.000000 0.390647 0.000206
finalresult GLS_Multiple 1
A8461	Ethanol	5.379404e-002
spectrum 2048
-97.055550 45044.000000
-94.428680 45044.000000
-91.803688 45747.000000
-89.180588 45688.000000
-86.559357 46631.000000
-83.940025 46343.000000
-81.322556 46592.000000
-78.706963 46474.000000
-76.093246 46701.000000
-73.481407 47103.000000
-70.871429 46918.000000
-68.263336 47187.000000
-65.657089 47104.000000
-63.052715 47111.000000
-60.450207 47013.000000
-57.849552 47573.000000
-55.250759 46967.000000
-52.653824 46295.000000
-50.058743 46658.000000
-47.465515 46605.000000
-44.874138 46762.000000
-42.284607 46334.000000
-39.696918 47225.000000
-37.111080 47084.000000
-34.527084 46563.000000
-31.944925 47372.000000
-29.364613 46876.000000
-26.786127 47342.000000
-24.209484 46920.000000
-21.634666 46759.000000
-19.061689 46495.000000
-16.490532 46472.000000
-13.921208 46117.000000
-11.353710 45060.000000
-8.788031 46525.000000
-6.224177 46217.000000
-3.662137 46581.000000
-1.101921 46607.000000
1.456487 46164.000000
4.013074 45186.000000
6.567857 45058.000000
9.120822 45153.000000
11.671987 43707.000000
14.221338 42976.000000
16.768894 41764.000000
19.314638 41081.000000
21.858589 39470.000000
24.400736 36653.000000
26.941086 34377.000000
29.479650 31557.000000
32.016418 27897.000000
34.551384 18741.000000
37.084572 12605.000000
39.615978 7907.000000
42.145592 7290.000000
44.673409 7482.000000
47.199467 6833.000000
49.723736 5751.000000
52.246235 4854.000000
54.766937 4372.000000
57.285885 4564.000000
59.803059 5401.000000
62.318455 7043.000000
64.832069 9100.000000
67.343933 8369.000000
69.854050 5677.000000
72.362373 3493.000000
74.868942 2938.000000
77.373764 2499.000000
79.876831 1997.000000
82.378120 1931.000000
84.877670 1781.000000
87.375465 1736.000000
89.871529 1810.000000
92.365814 2130.000000
94.858360 2373.000000
97.349190 2447.000000
99.838249 2181.000000
102.325562 1752.000000
104.811150 1385.000000
107.294998 1279.000000
109.777100 1315.000000
112.257477 1130.000000
114.736130 1175.000000
117.213058 1067.000000
119.688232 978.000000
122.161697 1046.000000
124.633430 1056.000000
127.103455 1154.000000
129.571732 1227.000000
132.038330 1253.000000
134.503174 1353.000000
136.966324 1493.000000
139.427734 1772.000000
141.887451 1930.000000
144.345444 2398.000000
146.801743 2851.000000
149.256332 3574.000000
151.709198 4156.000000
154.160385 5023.000000
156.609879 6057.000000
159.057648 7227.000000
161.503708 8388.000000
163.948090 9263.000000
166.390793 10366.000000
168.831802 11193.000000
171.271103 11714.000000
173.708694 12136.000000
176.144653 12582.000000
178.578873 12563.000000
181.011414 12638.000000
183.442307 12600.000000
185.871475 12651.000000
188.298996 12476.000000
190.724838 12523.000000
193.149002 12604.000000
195.571503 12585.000000
197.992310 12458.000000
200.411453 12844.000000
202.828934 13045.000000
205.244720 13392.000000
207.658859 13879.000000
210.071365 14485.000000
212.482193 15240.000000
214.891342 16086.000000
217.298859 16872.000000
219.704666 17767.000000
222.108887 18550.000000
224.511398 19299.000000
226.912292 19581.000000
229.311539 20147.000000
231.709122 20247.000000
234.105042 20161.000000
236.499344 20321.000000
238.891983 20442.000000
241.283005 20329.000000
243.672363 20377.000000
246.060104 20187.000000
248.446198 20009.000000
250.830658 20120.000000
253.213470 19697.000000
255.594711 19750.000000
257.974243 19718.000000
260.352203 19717.000000
262.728485 19501.000000
265.103210 19530.000000
267.476288 19216.000000
269.847717 19256.000000
272.217499 19174.000000
274.585724 19058.000000
276.952301 19036.000000
279.317291 18847.000000
281.680664 18892.000000
284.042389 18847.000000
286.402527 18688.000000
288.761047 18571.000000
291.117981 18658.000000
293.473297 18527.000000
295.827026 18638.000000
298.179108 18524.000000
300.529633 18394.000000
302.878571 18263.000000
305.225861 18191.000000
307.571625 18127.000000
309.915710 18125.000000
312.258270 17960.000000
314.599213 17883.000000
316.938538 17865.000000
319.276306 18043.000000
321.612518 17722.000000
323.947083 17765.000000
326.280090 17653.000000
328.611542 17762.000000
330.941406 17633.000000
333.269684 17523.000000
335.596344 17562.000000
337.921509 17610.000000
340.245056 17635.000000
342.567047 17693.000000
344.887482 17534.000000
347.206299 17384.000000
349.523560 17453.000000
351.839294 17511.000000
354.153442 17366.000000
356.466003 17425.000000
358.777008 17641.000000
361.086487 17397.000000
363.394440 17538.000000
365.700775 17560.000000
368.005524 17434.000000
370.308807 17578.000000
372.610474 17621.000000
374.910645 17445.000000
377.209259 17643.000000
379.506317 17663.000000
381.801819 17676.000000
384.095795 17890.000000
386.388184 17833.000000
388.679077 17745.000000
390.968445 17841.000000
393.256226 17999.000000
395.542480 18151.000000
397.827240 18246.000000
400.110382 18346.000000
402.392090 18255.000000
404.672272 18302.000000
406.950867 18159.000000
409.227936 18384.000000
411.503479 18220.000000
413.777496 18154.000000
416.050079 18261.000000
418.321045 18261.000000
420.590515 18084.000000
422.858490 18155.000000
425.124908 18033.000000
427.389832 18138.000000
429.653290 18226.000000
431.915161 18192.000000
434.175568 18071.000000
436.434418 18053.000000
438.691803 18100.000000
440.947693 18037.000000
443.202087 17800.000000
445.454956 17761.000000
447.706268 17578.000000
449.956177 17587.000000
452.204498 17454.000000
454.451385 17364.000000
456.696808 17257.000000
458.940674 17289.000000
461.183044 17210.000000
463.423920 17344.000000
465.663391 17301.000000
467.901276 17418.000000
470.137726 17362.000000
472.372650 17256.000000
474.606110 17101.000000
476.838135 17050.000000
479.068634 17143.000000
481.297638 17076.000000
483.525177 17068.000000
485.751221 17129.000000
487.975830 17048.000000
490.198975 17031.000000
492.420654 17064.000000
494.640778 17036.000000
496.859497 17326.000000
499.076721 17280.000000
501.292572 17221.000000
503.506805 17180.000000
505.719727 17215.000000
507.931061 17115.000000
510.140961 17160.000000
512.349426 17306.000000
514.556519 17340.000000
516.762024 17262.000000
518.966125 17206.000000
521.168701 17187.000000
523.369873 17168.000000
525.569702 16952.000000
527.768005 16979.000000
529.964783 17189.000000
532.160217 17022.000000
534.354126 17032.000000
536.546692 16865.000000
538.737732 16798.000000
540.927368 17001.000000
543.115601 16709.000000
545.302307 16783.000000
547.487549 16641.000000
549.671509 16389.000000
551.853882 16101.000000
554.034912 16329.000000
556.214417 16178.000000
558.392639 16143.000000
560.569336 16030.000000
562.744629 16027.000000
564.918518 15943.000000
567.090942 15900.000000
569.261963 15857.000000
571.431519 16019.000000
573.599792 15950.000000
575.766541 15934.000000
577.931824 15983.000000
580.095703 16022.000000
582.258301 16013.000000
584.419373 16128.000000
586.579041 16108.000000
588.737366 16089.000000
590.894165 16215.000000
593.049622 16130.000000
595.203674 16204.000000
597.356384 16356.000000
599.507568 16139.000000
601.657410 16225.000000
603.805908 16167.000000
605.952820 16148.000000
608.098511 16280.000000
610.242798 16123.000000
612.385620 16129.000000
614.526978 16314.000000
616.667114 16288.000000
618.805725 16236.000000
620.943054 16310.000000
623.078918 16197.000000
625.213379 16201.000000
627.346375 16096.000000
629.478210 15939.000000
631.608582 15800.000000
633.737549 15802.000000
635.865051 15770.000000
637.991272 15596.000000
640.115967 15474.000000
642.239441 15291.000000
644.361572 15283.000000
646.482239 15376.000000
648.601563 15267.000000
650.719482 15269.000000
652.836060 15349.000000
654.951233 15382.000000
657.065063 15176.000000
659.177429 15131.000000
661.288574 14998.000000
663.398315 15125.000000
665.506592 15032.000000
667.613708 15120.000000
669.719360 15025.000000
671.823547 15012.000000
673.926514 14958.000000
676.028076 15024.000000
678.128296 15193.000000
680.227112 15106.000000
682.324585 15635.000000
684.420776 15331.000000
686.515503 15460.000000
688.609009 15421.000000
690.701172 15171.000000
692.791809 15226.000000
694.881226 15578.000000
696.969360 15616.000000
699.056030 15618.000000
701.141479 15633.000000
703.225403 15497.000000
705.308105 15519.000000
707.389526 15483.000000
709.469482 15023.000000
711.548218 14682.000000
713.625488 14641.000000
715.701477 14758.000000
717.776184 14718.000000
719.849609 14613.000000
721.921509 15151.000000
723.992249 15034.000000
726.061646 14815.000000
728.129639 14683.000000
730.196289 14483.000000
732.261719 14471.000000
734.325806 14424.000000
736.388550 14606.000000
738.449951 14313.000000
740.510071 14337.000000
742.568787 14219.000000
744.626282 14329.000000
746.682495 14327.000000
748.737305 14143.000000
750.790833 14299.000000
752.842957 14282.000000
754.893860 14222.000000
756.943542 14162.000000
758.991760 13977.000000
761.038757 14229.000000
763.084473 14072.000000
765.128784 14088.000000
767.171814 14519.000000
769.213623 13122.000000
771.254089 14165.000000
773.293152 14184.000000
775.331055 14168.000000
777.367615 14202.000000
779.402954 14331.000000
781.436951 14403.000000
783.469543 14361.000000
785.500977 14463.000000
787.531006 13899.000000
789.559753 14210.000000
791.587341 14530.000000
793.613586 14538.000000
795.638428 14493.000000
797.662170 14637.000000
799.684509 14683.000000
801.705627 14656.000000
803.725403 14703.000000
805.743896 14925.000000
807.761169 14782.000000
809.777039 14946.000000
811.791748 14884.000000
813.805115 14826.000000
815.817261 14554.000000
817.828186 14527.000000
819.837769 14344.000000
821.846130 14239.000000
823.853088 14059.000000
825.858826 14200.000000
827.863342 14101.000000
829.866577 14084.000000
831.868530 14031.000000
833.869202 13794.000000
835.868652 14027.000000
837.866760 13938.000000
839.863770 13764.000000
841.859375 13933.000000
843.853821 14092.000000
845.846924 13965.000000
847.838806 13912.000000
849.829346 13647.000000
851.818604 13623.000000
853.806824 13615.000000
855.793640 13582.000000
857.779236 13561.000000
859.763550 13501.000000
861.746765 13662.000000
863.728577 13639.000000
865.709167 13699.000000
867.688477 13729.000000
869.666626 14011.000000
871.643433 14488.000000
873.618958 14942.000000
875.593445 15603.000000
877.566467 16105.000000
879.538452 16458.000000
881.509094 16500.000000
883.478577 16313.000000
885.446716 15833.000000
887.413696 15190.000000
889.379333 14757.000000
891.343811 14344.000000
893.307068 14126.000000
895.269104 13954.000000
897.229858 14040.000000
899.189392 13851.000000
901.147644 13683.000000
903.104797 13563.000000
905.060791 13605.000000
907.015381 13612.000000
908.968750 13454.000000
910.920959 13443.000000
912.871948 13497.000000
914.821655 13157.000000
916.770203 13148.000000
918.717529 13196.000000
920.663574 13081.000000
922.608337 12882.000000
924.552063 12901.000000
926.494629 12552.000000
928.435913 12512.000000
930.375854 12385.000000
932.314697 12353.000000
934.252258 12267.000000
936.188599 12241.000000
938.123779 12028.000000
940.057678 12211.000000
941.990479 12197.000000
943.922058 12210.000000
945.852478 12235.000000
947.781677 12132.000000
949.709534 12063.000000
951.636353 12170.000000
953.561890 12103.000000
955.486145 12165.000000
957.409302 12172.000000
959.331299 12254.000000
961.252014 12316.000000
963.171570 12235.000000
965.089966 12522.000000
967.007324 12504.000000
968.923218 12472.000000
970.838013 12512.000000
972.751587 12575.000000
974.664001 12624.000000
976.575195 12576.000000
978.485229 12604.000000
980.393982 12511.000000
982.301697 12455.000000
984.208191 12363.000000
986.113464 12311.000000
988.017639 12412.000000
989.920593 12310.000000
991.822327 12227.000000
993.722900 12347.000000
995.622314 12162.000000
997.520508 12416.000000
999.417542 12227.000000
1001.313354 11967.000000
1003.208008 11757.000000
1005.101563 11665.000000
1006.993835 11643.000000
1008.885193 11633.000000
1010.775208 11458.000000
1012.664001 11377.000000
1014.551636 11447.000000
1016.438110 11442.000000
1018.323425 11395.000000
1020.207581 11400.000000
1022.090515 11450.000000
1023.972412 11427.000000
1025.853027 11436.000000
1027.732544 11717.000000
1029.611084 11592.000000
1031.488281 11785.000000
1033.364136 11642.000000
1035.239014 11808.000000
1037.112915 11887.000000
1038.985352 11845.000000
1040.856812 11895.000000
1042.726929 12055.000000
1044.596069 12165.000000
1046.463989 12138.000000
1048.330811 12274.000000
1050.196533 12186.000000
1052.061035 12293.000000
1053.924438 12287.000000
1055.786499 12121.000000
1057.647583 12047.000000
1059.507568 12136.000000
1061.366211 12046.000000
1063.223755 12115.000000
1065.080200 12125.000000
1066.935547 12234.000000
1068.789673 12385.000000
1070.642944 12272.000000
1072.494751 12102.000000
1074.345581 12294.000000
1076.195190 12216.000000
1078.043579 12433.000000
1079.891113 12328.000000
1081.737305 12408.000000
1083.582275 12544.000000
1085.426392 12579.000000
1087.269165 12489.000000
1089.110718 12449.000000
1090.951538 12360.000000
1092.790771 12021.000000
1094.629272 12089.000000
1096.466431 11890.000000
1098.302368 11770.000000
1100.137329 11364.000000
1101.971069 11231.000000
1103.803833 11195.000000
1105.635254 11144.000000
1107.465820 11413.000000
1109.295044 11172.000000
1111.123291 10765.000000
1112.950317 10879.000000
1114.776367 10857.000000
1116.601196 10755.000000
1118.424927 10779.000000
1120.247437 10869.000000
1122.068848 10789.000000
1123.889404 10722.000000
1125.708496 10687.000000
1127.526733 10735.000000
1129.343628 10818.000000
1131.159668 10870.000000
1132.974487 10944.000000
1134.788208 10993.000000
1136.600830 11010.000000
1138.412231 11079.000000
1140.222656 11244.000000
1142.031982 11056.000000
1143.839966 11119.000000
1145.647217 11216.000000
1147.453003 11139.000000
1149.257935 11280.000000
1151.061768 11132.000000
1152.864380 11182.000000
1154.666138 11036.000000
1156.466431 11135.000000
1158.265747 11069.000000
1160.064087 10849.000000
1161.861084 10956.000000
1163.657349 10700.000000
1165.452271 10726.000000
1167.246094 10581.000000
1169.039063 10490.000000
1170.830688 10383.000000
1172.621338 10280.000000
1174.411011 10156.000000
1176.199219 10279.000000
1177.986572 10232.000000
1179.772827 9985.000000
1181.557983 10129.000000
1183.342041 10043.000000
1185.125000 10161.000000
1186.906982 10137.000000
1188.687744 9966.000000
1190.467529 10067.000000
1192.246216 9914.000000
1194.023926 9934.000000
1195.800415 9885.000000
1197.575806 9772.000000
1199.350098 9658.000000
1201.123291 9600.000000
1202.895630 9481.000000
1204.666626 9657.000000
1206.436768 9712.000000
1208.205688 9531.000000
1209.973511 9397.000000
1211.740479 9463.000000
1213.506104 9519.000000
1215.270752 9396.000000
1217.034302 9497.000000
1218.796753 9519.000000
1220.558350 9581.000000
1222.318726 9593.000000
1224.078003 9404.000000
1225.836426 9326.000000
1227.593628 9486.000000
1229.349731 9495.000000
1231.104736 9573.000000
1232.858887 9624.000000
1234.611694 9740.000000
1236.363525 9667.000000
1238.114502 9682.000000
1239.864136 9793.000000
1241.612915 9967.000000
1243.360352 9928.000000
1245.107056 9867.000000
1246.852539 9912.000000
1248.597168 9899.000000
1250.340454 9829.000000
1252.082764 9889.000000
1253.823975 9794.000000
1255.564331 9736.000000
1257.303589 9650.000000
1259.041626 9334.000000
1260.778809 9171.000000
1262.514771 9321.000000
1264.249756 9385.000000
1265.983765 9560.000000
1267.716797 9851.000000
1269.448608 9881.000000
1271.179443 9882.000000
1272.909058 9878.000000
1274.637817 10196.000000
1276.365479 10130.000000
1278.092041 10082.000000
1279.817749 10091.000000
1281.542114 9904.000000
1283.265625 9937.000000
1284.988159 9820.000000
1286.709717 9888.000000
1288.430054 9766.000000
1290.149414 9752.000000
1291.867676 9613.000000
1293.584961 9723.000000
1295.301270 9591.000000
1297.016357 9675.000000
1298.730469 9665.000000
1300.443604 9621.000000
1302.155884 9399.000000
1303.866943 9350.000000
1305.577026 9250.000000
1307.286011 9214.000000
1308.993774 9226.000000
1310.700928 9267.000000
1312.406616 9167.000000
1314.111572 9152.000000
1315.815552 9231.000000
1317.518311 9427.000000
1319.220093 9522.000000
1320.921021 9455.000000
1322.620605 14908.000000
1324.319336 2662.000000
1326.017334 8974.000000
1327.713989 9044.000000
1329.409546 8966.000000
1331.104248 8984.000000
1332.797729 8924.000000
1334.490356 9033.000000
1336.182129 8723.000000
1337.872559 8857.000000
1339.562256 8728.000000
1341.250854 8864.000000
1342.938354 8674.000000
1344.624878 8757.000000
1346.310303 8694.000000
1347.994751 8684.000000
1349.678345 8659.000000
1351.360718 8828.000000
1353.042114 8871.000000
1354.722656 9120.000000
1356.401978 8900.000000
1358.080688 9134.000000
1359.758057 9215.000000
1361.434326 9286.000000
1363.109619 9247.000000
1364.784180 9175.000000
1366.457520 9184.000000
1368.129883 9309.000000
1369.801270 9075.000000
1371.471680 9182.000000
1373.140991 9101.000000
1374.809326 9185.000000
1376.476807 9189.000000
1378.143188 9062.000000
1379.808594 9040.000000
1381.473022 9103.000000
1383.136230 8910.000000
1384.798828 9002.000000
1386.460083 8908.000000
1388.120483 8788.000000
1389.779785 8774.000000
1391.438110 8781.000000
1393.095703 8612.000000
1394.752075 8639.000000
1396.407593 8689.000000
1398.061890 8656.000000
1399.715332 8755.000000
1401.367676 8812.000000
1403.019287 8862.000000
1404.669678 8826.000000
1406.318970 8573.000000
1407.967529 8226.000000
1409.614990 8097.000000
1411.261475 8184.000000
1412.907104 8084.000000
1414.551758 8042.000000
1416.195190 7991.000000
1417.837769 8143.000000
1419.479248 8056.000000
1421.119873 8043.000000
1422.759521 8024.000000
1424.398071 8074.000000
1426.035767 7907.000000
1427.672363 7952.000000
1429.307983 7998.000000
1430.942871 7891.000000
1432.576660 7935.000000
1434.209351 7858.000000
1435.841064 7864.000000
1437.471924 7828.000000
1439.101685 7926.000000
1440.730347 7951.000000
1442.358398 7920.000000
1443.985352 8160.000000
1445.611084 8199.000000
1447.236206 8217.000000
1448.860229 8370.000000
1450.483276 8520.000000
1452.105347 8747.000000
1453.726318 8818.000000
1455.346313 8962.000000
1456.965576 8976.000000
1458.583496 8931.000000
1460.200806 8386.000000
1461.817139 8623.000000
1463.432251 8423.000000
1465.046509 8264.000000
1466.659912 8382.000000
1468.272217 8373.000000
1469.883667 8190.000000
1471.494263 8107.000000
1473.103638 8208.000000
1474.712036 8004.000000
1476.319580 8251.000000
1477.926147 8136.000000
1479.531982 8214.000000
1481.136597 7984.000000
1482.740356 7792.000000
1484.342896 7698.000000
1485.944824 7391.000000
1487.545532 7501.000000
1489.145508 7420.000000
1490.744385 7213.000000
1492.342407 7244.000000
1493.939331 7154.000000
1495.535400 7591.000000
1497.130493 7676.000000
1498.724609 7721.000000
1500.317993 7591.000000
1501.910278 7697.000000
1503.501343 7594.000000
1505.091919 7593.000000
1506.681152 7533.000000
1508.269775 7395.000000
1509.857300 7309.000000
1511.443726 7284.000000
1513.029419 7281.000000
1514.614014 7243.000000
1516.197754 7293.000000
1517.780396 7225.000000
1519.362305 7163.000000
1520.943115 7305.000000
1522.523193 7089.000000
1524.102051 6987.000000
1525.680054 7078.000000
1527.257324 6994.000000
1528.833374 6917.000000
1530.408691 6899.000000
1531.982910 6818.000000
1533.556396 6815.000000
1535.128662 6920.000000
1536.700195 6798.000000
1538.270752 6794.000000
1539.840454 6771.000000
1541.408936 6805.000000
1542.976685 6744.000000
1544.543579 6724.000000
1546.109253 6732.000000
1547.674194 6739.000000
1549.238037 6763.000000
1550.801270 6628.000000
1552.363159 6612.000000
1553.924438 6696.000000
1555.484619 6715.000000
1557.044067 6703.000000
1558.602417 6631.000000
1560.160034 6536.000000
1561.716553 6548.000000
1563.271851 6526.000000
1564.826538 6622.000000
1566.380493 6658.000000
1567.933472 6585.000000
1569.485107 6655.000000
1571.036011 6764.000000
1572.586182 6616.000000
1574.135376 6671.000000
1575.683228 6686.000000
1577.230591 6694.000000
1578.776978 6772.000000
1580.322510 6833.000000
1581.867065 6702.000000
1583.410400 6828.000000
1584.953125 6745.000000
1586.494995 6715.000000
1588.035767 6681.000000
1589.575562 6727.000000
1591.114624 6785.000000
1592.652588 6665.000000
1594.190063 6646.000000
1595.726196 6790.000000
1597.261230 6734.000000
1598.795776 6542.000000
1600.329346 6614.000000
1601.862061 6716.000000
1603.393188 6600.000000
1604.924072 6740.000000
1606.454102 6683.000000
1607.982910 6689.000000
1609.510620 6744.000000
1611.037720 6717.000000
1612.564087 6736.000000
1614.089478 6818.000000
1615.614014 6685.000000
1617.137207 6644.000000
1618.659668 6699.000000
1620.181396 6705.000000
1621.702271 6688.000000
1623.221680 6498.000000
1624.740601 6684.000000
1626.258789 6657.000000
1627.776123 6637.000000
1629.292358 6587.000000
1630.807251 6540.000000
1632.321655 6473.000000
1633.835327 6549.000000
1635.347900 6474.000000
1636.859253 6519.000000
1638.370239 6505.000000
1639.880127 6422.000000
1641.389160 6537.000000
1642.896851 6391.000000
1644.404175 6507.000000
1645.910645 6174.000000
1647.416138 6453.000000
1648.920776 6354.000000
1650.423950 6222.000000
1651.926514 6279.000000
1653.428711 6107.000000
1654.929565 6138.000000
1656.429321 6152.000000
1657.928223 6064.000000
1659.426758 6078.000000
1660.924072 6146.000000
1662.420654 6072.000000
1663.915649 6041.000000
1665.410400 5955.000000
1666.904297 5943.000000
1668.397217 5981.000000
1669.888794 5348.000000
1671.379883 5650.000000
1672.870361 5759.000000
1674.359741 5725.000000
1675.847656 5715.000000
1677.335327 5739.000000
1678.822021 5828.000000
1680.307861 5830.000000
1681.792847 5702.000000
1683.276367 5662.000000
1684.759644 5461.000000
1686.242065 5612.000000
1687.723389 5656.000000
1689.203247 5556.000000
1690.682861 5461.000000
1692.161743 5466.000000
1693.639648 5232.000000
1695.116577 5483.000000
1696.592285 5560.000000
1698.067627 5398.000000
1699.541748 5459.000000
1701.015259 5407.000000
1702.487305 5463.000000
1703.959106 5396.000000
1705.429932 5472.000000
1706.899902 5405.000000
1708.368530 5406.000000
1709.836670 5501.000000
1711.304077 5444.000000
1712.770386 5349.000000
1714.236084 5430.000000
1715.700073 5360.000000
1717.163940 5337.000000
1718.626953 5384.000000
1720.088989 5430.000000
1721.549805 5416.000000
1723.010010 5376.000000
1724.469482 5354.000000
1725.928101 5348.000000
1727.385742 5293.000000
1728.842041 5312.000000
1730.298096 5324.000000
1731.753174 5332.000000
1733.207275 5280.000000
1734.660156 5206.000000
1736.112793 5229.000000
1737.564331 5277.000000
1739.015137 5255.000000
1740.464966 5105.000000
1741.913452 5131.000000
1743.361572 5110.000000
1744.808838 5163.000000
1746.255371 5026.000000
1747.700317 4910.000000
1749.145020 5106.000000
1750.588867 4888.000000
1752.031860 5142.000000
1753.473389 5011.000000
1754.914673 4904.000000
1756.355103 4933.500000
1757.794556 4963.000000
1759.233032 4864.000000
1760.670532 4882.000000
1762.107544 4837.000000
1763.543579 4819.000000
1764.978760 4858.000000
1766.412476 4789.000000
1767.846069 4905.000000
1769.278687 4802.000000
1770.710449 4953.000000
1772.141357 4944.000000
1773.571045 4883.000000
1775.000000 4742.000000
1776.428467 4629.000000
1777.855957 4550.000000
1779.282104 4280.000000
1780.708008 4590.000000
1782.132813 4512.000000
1783.557007 4506.000000
1784.979736 4620.000000
1786.401978 4576.000000
1787.823486 4532.000000
1789.244263 4435.000000
1790.664063 4536.000000
1792.082520 4468.000000
1793.500488 4416.000000
1794.917847 4360.000000
1796.334351 4418.000000
1797.749390 4421.000000
1799.164063 4429.000000
1800.578125 4520.000000
1801.990967 4480.000000
1803.403198 4308.000000
1804.814087 4338.000000
1806.224487 4325.000000
1807.634155 4292.000000
1809.042847 4367.000000
1810.450439 4351.000000
1811.857544 4429.000000
1813.263794 4411.000000
1814.669067 4331.000000
1816.073242 4463.000000
1817.477051 4445.000000
1818.879883 4317.000000
1820.281860 4503.000000
1821.683228 4443.000000
1823.083130 4333.000000
1824.482422 4322.000000
1825.881226 4335.000000
1827.279175 4363.000000
1828.675781 4346.000000
1830.071777 4409.000000
1831.467041 4305.000000
1832.861694 4233.000000
1834.255371 4466.000000
1835.647705 4475.000000
1837.039551 4253.000000
1838.430786 4370.000000
1839.821045 4295.000000
1841.210083 4360.000000
1842.598755 4298.000000
1843.986450 4342.000000
1845.373413 4263.000000
1846.759033 4209.000000
1848.144409 4347.000000
1849.528931 4172.000000
1850.912720 4120.000000
1852.295410 4198.000000
1853.676880 4177.000000
1855.057861 4141.000000
1856.438354 4009.000000
1857.817871 4036.000000
1859.195923 4125.000000
1860.573853 4038.000000
1861.950806 4103.000000
1863.327026 4105.000000
1864.702393 4099.000000
1866.076294 3942.000000
1867.450073 3932.000000
1868.822998 3843.000000
1870.194824 3917.000000
1871.565674 3861.000000
1872.936157 3875.000000
1874.305542 3884.000000
1875.674438 3789.000000
1877.041748 3775.000000
1878.408936 3858.000000
1879.775146 3846.000000
1881.140625 3812.000000
1882.505371 3789.000000
1883.868530 3718.000000
1885.231567 3696.000000
1886.593750 3783.000000
1887.955078 3779.000000
1889.315063 3781.000000
1890.674683 3740.000000
1892.033691 3651.000000
1893.391724 3794.000000
1894.748901 3754.000000
1896.104858 3638.000000
1897.460571 3597.000000
1898.815308 3739.000000
1900.169189 3684.000000
1901.521973 3701.000000
1902.874268 3636.000000
1904.225830 3711.000000
1905.576538 3742.000000
1906.926025 3775.000000
1908.275024 3621.000000
1909.623169 3777.000000
1910.970703 3706.000000
1912.317505 3583.000000
1913.662720 3607.000000
1915.007690 3738.000000
1916.351929 3682.000000
1917.695313 3769.000000
1919.037354 3718.000000
1920.379150 3629.000000
1921.720093 3688.000000
1923.060303 3759.000000
1924.399536 3675.000000
1925.737793 3741.000000
1927.075439 3763.000000
1928.412354 3699.000000
1929.748413 3601.000000
1931.083252 3678.000000
1932.417725 3670.000000
1933.751465 3723.000000
1935.084351 3679.000000
1936.415771 3746.000000
1937.747314 3552.000000
1939.077515 3479.000000
1940.407227 3583.000000
1941.736084 3573.000000
1943.063721 3560.000000
1944.390869 3515.000000
1945.717285 3694.000000
1947.042969 3613.000000
1948.367310 3549.000000
1949.691406 3548.000000
1951.014648 3514.000000
1952.337158 3483.000000
1953.658569 3469.000000
1954.979004 3462.000000
1956.298828 3452.000000
1957.618286 3428.000000
1958.936768 3439.000000
1960.253906 3431.000000
1961.570679 3321.000000
1962.886719 3460.000000
1964.202026 3409.000000
1965.515869 3453.000000
1966.829468 3325.000000
1968.142334 3398.000000
1969.454346 3301.000000
1970.765747 3345.000000
1972.075806 3297.000000
1973.385376 3282.000000
1974.694214 3232.000000
1976.002441 3247.000000
1977.309326 3213.000000
1978.615601 3206.000000
1979.921509 3196.000000
1981.226196 3400.000000
1982.530396 3222.000000
1983.833374 3150.000000
1985.135986 3235.000000
1986.437622 3251.000000
1987.738647 3144.000000
1989.038086 3071.000000
1990.337646 3041.000000
1991.636108 3119.000000
1992.934082 3070.000000
1994.230469 3084.000000
1995.526855 3133.000000
1996.822266 3149.000000
1998.116943 3101.000000
1999.410767 3012.000000
2000.703369 2987.000000
2001.995483 3022.000000
2003.287109 2985.000000
2004.578003 3082.000000
2005.867310 3236.000000
2007.156372 3005.000000
2008.444702 3061.000000
2009.732300 3067.000000
2011.019043 3011.000000
2012.304688 3071.000000
2013.589966 2951.000000
2014.874268 2941.000000
2016.157959 3025.000000
2017.440308 2974.000000
2018.722290 2962.000000
2020.003784 2897.000000
2021.284302 2895.000000
2022.564087 2911.000000
2023.842773 2988.000000
2025.120728 2927.000000
2026.398193 2983.000000
2027.675049 3039.000000
2028.950195 2970.000000
2030.225464 3036.000000
2031.499756 3015.000000
2032.773071 2945.000000
2034.045532 3026.000000
2035.317627 2928.000000
2036.588623 2999.000000
2037.859375 3042.000000
2039.128784 2987.000000
2040.397095 2964.000000
2041.665405 3055.000000
2042.932739 3038.000000
2044.199341 2929.000000
2045.464722 3058.000000
2046.729492 3157.000000
2047.994019 3002.000000
2049.257324 2984.000000
2050.520264 2947.000000
2051.781250 2909.000000
2053.042725 2851.000000
2054.302979 2920.000000
2055.562500 2859.000000
2056.821289 2902.000000
2058.079102 2923.000000
2059.336426 2934.000000
2060.593018 2924.000000
2061.848145 2857.000000
2063.103271 2883.000000
2064.357422 2851.000000
2065.610840 2851.000000
2066.863525 2833.000000
2068.114990 2850.000000
2069.366211 2763.000000
2070.616699 2914.000000
2071.866455 2858.000000
2073.114746 2382.000000
2074.363037 2816.000000
2075.610352 2843.000000
2076.856934 2748.000000
2078.102783 2807.000000
2079.347412 2723.000000
2080.591553 2672.000000
2081.835205 2686.000000
2083.077881 2760.000000
2084.319336 2583.000000
2085.560547 2662.000000
2086.801270 2669.000000
2088.041016 2595.000000
2089.279541 2735.000000
2090.517578 2625.000000
2091.754883 2625.000000
2092.991943 2602.000000
2094.227539 2658.000000
2095.462402 2730.000000
2096.697021 2705.000000
2097.930664 2655.000000
2099.163330 2552.000000
2100.395264 2612.000000
2101.626709 2597.000000
2102.857178 2690.000000
2104.086914 2654.000000
2105.316406 2547.000000
2106.543945 2539.000000
2107.771729 2574.000000
2108.998779 2464.000000
2110.224854 2524.000000
2111.449463 2550.000000
2112.674316 2386.000000
2113.897949 2480.000000
2115.121094 2525.000000
2116.343018 2476.000000
2117.564697 2663.000000
2118.785400 2456.000000
2120.005371 2595.000000
2121.224854 2522.000000
2122.442871 2527.000000
2123.660889 2597.000000
2124.877930 2424.000000
2126.094482 2565.000000
2127.309326 2476.000000
2128.524414 2463.000000
2129.738525 2495.000000
2130.951904 2448.000000
2132.164551 2474.000000
2133.375732 2431.000000
2134.587158 2334.000000
2135.797363 2557.000000
2137.007080 2468.000000
2138.215332 2540.000000
2139.423584 2493.000000
2140.631104 2468.000000
2141.837402 2306.000000
2143.042969 2469.000000
2144.248291 2496.000000
2145.452637 2489.000000
2146.656250 2489.000000
2147.859375 2505.000000
2149.061035 2483.000000
2150.262451 2444.000000
2151.463135 2439.000000
2152.663086 2394.000000
2153.861816 2511.000000
2155.060303 2435.000000
2156.258301 2529.000000
2157.455322 2259.000000
2158.651611 2384.000000
2159.846680 2314.000000
2161.041504 2357.000000
2162.235596 2282.000000
2163.428711 2297.000000
2164.620850 2293.000000
2165.812744 2259.000000
2167.003906 2241.000000
2168.194092 2167.000000
2169.383545 2226.000000
2170.572510 2325.000000
2171.760498 2223.000000
2172.948242 2127.000000
2174.134521 2159.000000
2175.320068 2100.000000
2176.505371 2122.000000
2177.690186 2062.000000
2178.873779 2161.000000
2180.056641 2162.000000
2181.238525 2109.000000
2182.420166 2149.000000
2183.601318 2107.000000
2184.781250 2170.000000
2185.960205 2264.000000
2187.138672 2078.000000
2188.316895 2066.000000
2189.493896 2098.000000
2190.669922 1969.000000
2191.845703 2088.000000
2193.020996 2195.000000
2194.194824 2108.000000
2195.368164 2075.000000
2196.541260 2198.000000
2197.713135 2091.000000
2198.884521 2205.000000
2200.055420 2143.000000
2201.224609 2130.000000
2202.393799 2160.000000
2203.562500 2114.000000
2204.730225 2126.000000
2205.896973 2142.000000
2207.062988 2124.000000
2208.228516 2059.000000
2209.393799 2052.000000
2210.557617 2023.000000
2211.720947 2224.000000
2212.883057 2047.000000
2214.045410 2141.000000
2215.206543 2060.000000
2216.366699 2131.000000
2217.526367 2023.000000
2218.685791 2050.000000
2219.843994 2050.000000
2221.001221 2079.000000
2222.158203 2095.000000
2223.314453 2026.000000
2224.469971 2084.000000
2225.624756 2069.000000
2226.778564 1893.000000
2227.931396 1949.000000
2229.084717 2000.000000
2230.236084 2009.000000
2231.387207 1995.000000
2232.537598 1910.000000
2233.687500 1911.000000
2234.836426 1967.000000
2235.984863 1970.000000
2237.131836 2034.000000
2238.279053 1955.000000
2239.425049 1951.000000
2240.570801 1878.000000
2241.714844 1872.000000
2242.859131 1884.000000
2244.002441 1786.000000
2245.145020 1743.000000
2246.286621 1829.000000
2247.427979 1780.000000
2248.568359 1857.000000
2249.708008 1768.000000
2250.847168 1771.000000
2251.985107 1783.000000
2253.123047 1784.000000
2254.260010 1842.000000
2255.396240 1756.000000
2256.531494 1779.000000
2257.666016 1838.000000
2258.800293 1767.000000
2259.934082 1788.000000
2261.066406 1844.000000
2262.198242 1734.000000
2263.329590 1707.000000
2264.459961 1734.000000
2265.590088 1708.000000
2266.718994 1664.000000
2267.847412 1781.000000
2268.975342 1674.000000
2270.102295 1748.000000
2271.228516 1619.000000
2272.353760 1672.000000
2273.479004 1631.000000
2274.603516 1676.000000
2275.726807 1640.000000
2276.849365 1714.000000
2277.971436 1764.000000
2279.093018 1705.000000
2280.213867 1641.000000
2281.333496 1748.000000
2282.452637 1651.000000
2283.571533 1547.000000
2284.689697 1621.000000
2285.806885 1627.000000
2286.923096 1664.000000
2288.039063 1669.000000
2289.154297 1673.000000
2290.268799 1722.000000
2291.382080 1702.000000
2292.495361 1579.000000
2293.607910 1698.000000
2294.719727 1658.000000
2295.830811 1672.000000
2296.940674 1696.000000
2298.050049 1734.000000
2299.159180 1685.000000
2300.267334 1600.000000
2301.374512 1637.000000
2302.481445 1651.000000
2303.587646 1720.000000
2304.693359 1683.000000
2305.797607 1615.000000
2306.901611 1695.000000
2308.005127 1682.000000
2309.108154 1621.000000
2310.209961 1610.000000
2311.311035 1593.000000
2312.411621 1618.000000
2313.511719 1503.000000
2314.611084 1581.000000
2315.708984 1565.000000
2316.807373 1586.000000
2317.904297 1117.000000
2319.000977 1535.000000
2320.097168 1637.000000
2321.191650 1569.000000
2322.286133 1673.000000
2323.379883 1483.000000
2324.473389 1563.000000
2325.565186 1607.000000
2326.656982 1642.000000
2327.748047 1643.000000
2328.838379 1666.000000
2329.927734 1677.000000
2331.017090 1577.000000
2332.105225 1617.000000
2333.192871 1538.000000
2334.280273 1508.000000
2335.365967 1407.000000
2336.451416 1547.000000
2337.536621 1538.000000
2338.620850 1560.000000
2339.704102 1451.000000
2340.787109 1445.000000
2341.869141 1523.000000
2342.950928 1492.000000
2344.031982 1503.000000
2345.111816 1422.000000
2346.191162 1385.000000
2347.270020 1402.000000
2348.348389 1527.000000
2349.425293 1426.000000
2350.501953 1325.000000
2351.578369 1370.000000
2352.653809 1335.000000
2353.728271 1419.000000
2354.802490 1375.000000
2355.875977 1305.000000
2356.948975 1332.000000
2358.020752 1414.000000
2359.092285 1334.000000
2360.162842 1338.000000
2361.233154 1326.000000
2362.302490 1359.000000
2363.370850 1263.000000
2364.438965 1340.000000
2365.506348 1245.000000
2366.573242 1352.000000
2367.639404 1383.000000
2368.704346 1290.000000
2369.769287 1224.000000
2370.833496 1254.000000
2371.896973 1220.000000
2372.959229 1307.000000
2374.021484 1324.000000
2375.082764 1359.000000
2376.143799 1311.000000
2377.203613 1203.000000
2378.262695 1343.000000
2379.321777 1304.000000
2380.379883 1286.000000
2381.437256 1270.000000
2382.493652 1265.000000
2383.549805 1310.000000
2384.605469 1256.000000
2385.660400 1245.000000
2386.713867 1292.000000
2387.767578 1214.000000
2388.820313 1272.000000
2389.872559 1225.000000
2390.924072 1226.000000
2391.974609 1299.000000
2393.024902 1233.000000
2394.074219 1299.000000
2395.123535 1229.000000
2396.171387 1279.000000
2397.218750 1255.000000
2398.265869 1245.000000
2399.312012 1198.000000
2400.357422 1257.000000
2401.402100 1210.000000
2402.446777 1175.000000
2403.489990 1322.000000
2404.533203 1253.000000
2405.574951 1191.000000
2406.616943 1304.000000
2407.658203 1121.000000
2408.698486 1212.000000
2409.738037 1218.000000
2410.776611 1287.000000
2411.815430 1167.000000
2412.853027 1270.000000
2413.890381 1205.000000
2414.926514 1333.000000
2415.962402 1171.000000
2416.997559 1209.000000
2418.032227 1192.000000
2419.065430 1174.000000
2420.098877 1174.000000
2421.131348 1111.000000
2422.163574 1217.000000
2423.194336 1181.000000
2424.225098 1204.000000
2425.255371 1209.000000
2426.284424 1118.000000
2427.313477 1090.000000
2428.340820 1138.000000
2429.368652 1132.000000
2430.395264 1129.000000
2431.421631 1149.000000
2432.446533 1260.000000
2433.471680 1132.000000
2434.495850 1063.000000
2435.519775 1110.000000
2436.542480 1119.000000
2437.564453 1068.000000
2438.586182 1108.000000
2439.607178 1094.000000
2440.627686 1065.000000
2441.646973 1141.000000
2442.666260 1107.000000
2443.684570 1115.000000
2444.702637 1107.000000
2445.719238 1033.000000
2446.735840 1194.000000
2447.751709 1002.000000
2448.767578 1022.000000
2449.781982 1090.000000
2450.795654 1075.000000
2451.808838 1012.000000
2452.821777 1020.000000
2453.833984 1017.000000
2454.845215 1164.000000
2455.856201 1047.000000
2456.866455 1044.000000
2457.876221 1060.000000
2458.885010 1023.000000
2459.893066 1023.000000
2460.901123 1070.000000
2461.907959 1020.000000
2462.914551 1023.000000
2463.919922 1054.000000
2464.925049 922.000000
2465.929932 964.000000
2466.933594 913.000000
2467.937012 1049.000000
2468.939453 1065.000000
2469.941650 972.000000
2470.943359 948.000000
2471.944092 937.000000
2472.943848 994.000000
2473.943604 986.000000
2474.942383 983.000000
2475.940674 1035.000000
2476.937988 986.000000
2477.935059 929.000000
2478.932129 1024.000000
2479.927734 974.000000
2480.923340 990.000000
2481.917236 1004.000000
2482.911133 982.000000
2483.904541 973.000000
2484.897461 929.000000
2485.889404 880.000000
2486.880615 1041.000000
2487.871582 1048.000000
2488.862061 934.000000
2489.851563 1063.000000
2490.840332 976.000000
2491.829102 1023.000000
2492.816895 940.000000
2493.803467 985.000000
2494.790039 945.000000
2495.776123 1004.000000
2496.761475 946.000000
2497.745850 877.000000
2498.729980 1026.000000
2499.714111 939.000000
2500.696777 908.000000
2501.678955 980.000000
2502.660645 870.000000
2503.641602 1000.000000
2504.622070 962.000000
2505.602295 948.000000
2506.581055 936.000000
2507.559570 1064.000000
2508.537598 997.000000
2509.515137 923.000000
2510.491699 904.000000
2511.468018 852.000000
2512.443604 897.000000
2513.418701 894.000000
2514.393311 935.000000
2515.366699 953.000000
2516.339844 915.000000
2517.312744 877.000000
2518.284668 892.000000
2519.255859 830.000000
2520.226563 939.000000
2521.197021 938.000000
2522.166748 943.000000
2523.135498 929.000000
2524.103516 815.000000
2525.071533 857.000000
2526.038574 803.000000
2527.005371 865.000000
2527.970947 941.000000
2528.936523 887.000000
2529.901367 805.000000
2530.865723 819.000000
2531.828857 899.000000
2532.792236 878.000000
2533.754639 758.000000
2534.716797 817.000000
2535.677734 954.000000
2536.637939 845.000000
2537.598389 821.000000
2538.557861 883.000000
2539.516602 898.000000
2540.474365 852.000000
2541.432373 858.000000
2542.389648 806.000000
2543.345947 858.000000
2544.302002 845.000000
2545.256836 812.000000
2546.211914 839.000000
2547.166260 764.000000
2548.119873 1167.000000
2549.072510 810.000000
2550.024902 811.000000
2550.976807 786.000000
2551.927979 755.000000
2552.878418 766.000000
2553.828369 807.000000
2554.778076 726.000000
2555.727051 791.000000
2556.675537 775.000000
2557.622803 772.000000
2558.570068 798.000000
2559.516602 739.000000
2560.462646 737.000000
2561.407715 787.000000
2562.352539 864.000000
2563.296875 781.000000
2564.240723 741.000000
2565.184082 826.000000
2566.125977 749.000000
2567.068115 717.000000
2568.009521 719.000000
2568.950195 789.000000
2569.890137 744.000000
2570.830078 739.000000
2571.769043 810.000000
2572.707764 706.000000
2573.645508 710.000000
2574.583008 720.000000
2575.519775 607.000000
2576.455811 612.000000
2577.391357 731.000000
2578.326172 723.000000
2579.260986 763.000000
2580.194824 722.000000
2581.128174 619.000000
2582.060791 705.000000
2582.993164 763.000000
2583.924805 710.000000
2584.855957 716.000000
2585.786621 627.000000
2586.716064 719.000000
2587.645508 731.000000
2588.574463 701.000000
2589.503174 860.000000
2590.430176 714.000000
2591.357422 866.000000
2592.284180 723.000000
2593.210205 754.000000
2594.135986 693.000000
2595.060547 785.000000
2595.984863 740.000000
2596.908691 701.000000
2597.832031 681.000000
2598.754395 703.000000
2599.676514 709.000000
2600.598145 696.000000
2601.519043 730.000000
2602.439209 710.000000
2603.359131 654.000000
2604.278564 559.000000
2605.197754 727.000000
2606.115967 689.000000
2607.032959 681.000000
2607.950195 717.000000
2608.867188 682.000000
2609.783203 690.000000
2610.697998 706.000000
2611.613281 755.000000
2612.527832 726.000000
2613.441406 680.000000
2614.354980 661.000000
2615.267334 667.000000
2616.179688 562.000000
2617.091064 728.000000
2618.002197 568.000000
2618.912598 690.000000
2619.822754 697.000000
2620.732178 659.000000
2621.641113 667.000000
2622.549072 596.000000
2623.457275 585.000000
2624.364502 695.000000
2625.271240 570.000000
2626.177246 647.000000
2627.083008 624.000000
2627.988037 665.000000
2628.892822 642.000000
2629.796875 581.000000
2630.699951 622.000000
2631.603027 652.000000
2632.505127 619.000000
2633.407227 532.000000
2634.309082 695.000000
2635.209229 667.000000
2636.109619 616.000000
2637.009277 570.000000
2637.908691 608.000000
2638.806641 638.000000
2639.705078 650.000000
2640.603027 576.000000
2641.500244 528.000000
2642.396240 583.000000
2643.292236 589.000000
2644.187988 605.000000
2645.083008 575.000000
2645.977783 528.000000
2646.871094 582.000000
2647.764404 609.000000
2648.657471 651.000000
2649.550293 582.000000
2650.441406 640.000000
2651.332764 613.000000
2652.223633 587.000000
2653.113770 534.000000
2654.003662 517.000000
2654.892334 648.000000
2655.781250 590.000000
2656.669678 590.000000
2657.557129 515.000000
2658.443604 514.000000
2659.330566 480.000000
2660.216797 531.000000
2661.102539 568.000000
2661.987061 470.000000
2662.871582 565.000000
2663.755859 592.000000
2664.639404 541.000000
2665.522461 544.000000
2666.404785 617.000000
2667.286621 582.000000
2668.167725 532.000000
2669.049072 555.000000
2669.928955 591.000000
2670.809082 603.000000
2671.688477 605.000000
2672.567871 619.000000
2673.446533 546.000000
2674.323486 546.000000
2675.201172 587.000000
2676.078125 579.000000
2676.954346 546.000000
2677.830078 501.000000
2678.705078 561.000000
2679.580322 457.000000
2680.454590 605.000000
2681.328369 453.000000
2682.201416 594.000000
2683.074219 439.000000
2683.946777 567.000000
2684.818604 467.000000
2685.689697 547.000000
2686.560547 528.000000
2687.430908 535.000000
2688.301025 494.000000
2689.169434 478.000000
2690.038574 487.000000
2690.906982 569.000000
2691.775146 547.000000
2692.642578 492.000000
2693.508789 412.000000
2694.375488 498.000000
2695.241211 502.000000
2696.106934 598.000000
2696.971191 687.000000
2697.836182 489.000000
2698.699707 464.000000
2699.563477 560.000000
2700.425781 528.000000
2701.288574 577.000000
2702.150391 451.000000
2703.011719 545.000000
2703.873047 523.000000
2704.733154 532.000000
2705.593262 538.000000
2706.452881 498.000000
2707.312256 643.000000
2708.169922 518.000000
2709.027832 539.000000
2709.886230 489.000000
2710.743408 456.000000
2711.599854 446.000000
2712.455811 520.000000
2713.311768 555.000000
2714.166992 466.000000
2715.021484 424.000000
2715.875488 495.000000
2716.729492 440.000000
2717.582520 542.000000
2718.435791 456.000000
2719.287354 431.000000
2720.139404 510.000000
2720.991211 516.000000
2721.841797 479.000000
2722.692383 523.000000
2723.542480 497.000000
2724.391846 404.000000
2725.241211 452.000000
2726.089355 509.000000
2726.937012 470.000000
2727.785156 518.000000
2728.632080 472.000000
2729.479492 516.000000
2730.325439 471.000000
2731.170654 511.000000
2732.016357 556.000000
2732.861084 451.000000
2733.705811 463.000000
2734.549316 363.000000
2735.393066 579.000000
2736.236084 467.000000
2737.078613 366.000000
2737.920166 493.000000
2738.762207 481.000000
2739.603271 454.000000
2740.444092 494.000000
2741.284668 511.000000
2742.124023 498.000000
2742.963379 409.000000
2743.802734 412.000000
2744.640869 523.000000
2745.478516 515.000000
2746.316162 552.000000
2747.153320 406.000000
2747.990234 447.000000
2748.826660 482.000000
2749.661865 518.000000
2750.497314 487.000000
2751.332275 515.000000
2752.166504 519.000000
2753.000488 347.000000
2753.833984 424.000000
2754.667480 454.000000
2755.500000 474.000000
2756.332031 431.000000
2757.163574 515.000000
2757.995117 600.000000
2758.825684 396.000000
2759.656494 492.000000
2760.486084 474.000000
2761.315674 394.000000
2762.145020 437.000000
2762.973633 388.000000
2763.801758 461.000000
2764.629395 277.000000
2765.457031 329.000000
2766.284180 474.000000
2767.110596 413.000000
2767.936523 503.000000
2768.761963 385.000000
2769.587158 453.000000
2770.412354 487.000000
2771.236328 398.000000
2772.060303 374.000000
2772.884277 426.000000
2773.707031 417.000000
2774.530029 602.000000
2775.351807 400.000000
2776.173584 385.000000
2776.995361 353.000000
2777.816162 499.000000
2778.636230 413.000000
2779.456543 403.000000
2780.276367 389.000000
2781.096191 369.000000
2781.914063 415.000000
2782.733154 354.000000
2783.551025 343.000000
2784.368652 434.000000
2785.185791 385.000000
2786.002441 410.000000
2786.818848 284.000000
2787.634766 374.000000
2788.450439 389.000000
2789.265137 389.000000
2790.080322 321.000000
2790.894775 376.000000
2791.708740 395.000000
2792.522461 339.000000
2793.334961 298.000000
2794.147705 370.000000
2794.959961 341.000000
2795.771729 378.000000
2796.582764 359.000000
2797.394531 416.000000
2798.205078 257.000000
2799.015625 394.000000
2799.824707 431.000000
2800.634521 318.000000
2801.443604 339.000000
2802.252441 390.000000
2803.060791 376.000000
2803.868164 338.000000
2804.676025 400.000000
2805.483154 353.000000
2806.290039 396.000000
2807.095703 252.000000
2807.901855 441.000000
2808.707275 359.000000
2809.512695 315.000000
2810.317383 432.000000
2811.121094 441.000000
2811.925293 330.000000
2812.729004 287.000000
2813.532471 395.000000
2814.334473 400.000000
2815.137207 314.000000
2815.939209 393.000000
2816.740967 341.000000
2817.542236 414.000000
2818.343018 376.000000
2819.143311 311.000000
2819.943848 365.000000
2820.743408 378.000000
2821.542480 340.000000
2822.341553 301.000000
2823.140381 342.000000
2823.938721 362.000000
2824.736084 347.000000
2825.533691 413.000000
2826.330566 406.000000
2827.127686 465.000000
2827.924072 460.000000
2828.719727 453.000000
2829.515381 322.000000
2830.310791 356.000000
2831.105713 314.000000
2831.899902 492.000000
2832.694092 423.000000
2833.488037 379.000000
2834.281494 440.000000
2835.074219 417.000000
2835.866699 496.000000
2836.659180 373.000000
2837.451416 447.000000
2838.243164 384.000000
2839.033936 402.000000
2839.824707 376.000000
2840.615723 462.000000
2841.405762 314.000000
2842.195313 391.000000
2842.985107 320.000000
2843.773926 400.000000
2844.562744 340.000000
2845.351563 399.000000
2846.139404 442.000000
2846.926758 321.000000
2847.714355 315.000000
2848.501465 429.000000
2849.287842 415.000000
2850.074219 331.000000
2850.860352 389.000000
2851.645996 357.000000
2852.430664 362.000000
2853.215820 434.000000
2854.000732 413.000000
2854.784912 377.000000
2855.569092 426.000000
2856.352051 368.000000
2857.135254 484.000000
2857.918213 378.000000
2858.700684 406.000000
2859.482910 324.000000
2860.264648 464.000000
2861.046143 384.000000
2861.827881 371.000000
2862.608887 424.000000
2863.389160 360.000000
2864.169189 455.000000
2864.949219 337.000000
2865.729004 526.000000
2866.507813 412.000000
2867.286865 444.000000
2868.065430 407.000000
2868.843750 461.000000
2869.621582 413.000000
2870.399170 440.000000
2871.176514 456.000000
2871.953613 597.000000
2872.730225 526.000000
2873.506348 461.000000
2874.282471 516.000000
2875.058105 600.000000
2875.833496 553.000000
2876.608398 520.000000
2877.383057 490.000000
2878.157715 591.000000
2878.932129 496.000000
2879.705811 634.000000
2880.478760 487.000000
2881.252441 553.000000
2882.025146 570.000000
2882.797852 593.000000
2883.569824 604.000000
2884.341553 589.000000
2885.113770 583.000000
2885.884766 592.000000
2886.655273 547.000000
2887.426270 516.000000
2888.197266 657.000000
2888.967529 606.000000
2889.736816 572.000000
2890.506348 521.000000
2891.275879 539.000000
2892.044922 606.000000
2892.813477 556.000000
2893.582031 559.000000
2894.349609 534.000000
2895.117676 645.000000
2895.885254 525.000000
2896.652832 584.000000
2897.419189 574.000000
2898.186523 511.000000
2898.952637 590.000000
2899.718994 541.000000
2900.483887 508.000000
2901.249268 512.000000
2902.015137 578.000000
2902.779541 524.000000
2903.543945 447.000000
2904.308594 523.000000
2905.072266 512.000000
2905.836670 456.000000
2906.600342 455.000000
2907.363281 521.000000
2908.125977 486.000000
2908.889160 509.000000
2909.651855 424.000000
2910.413330 481.000000
2911.175293 481.000000
spectrumdark 2048
-97.055550 6291.000000
-94.428680 6291.000000
-91.803688 6051.000000
-89.180588 6478.000000
-86.559357 5790.000000
-83.940025 6262.000000
-81.322556 6131.000000
-78.706963 6375.000000
-76.093246 6232.000000
-73.481407 5860.000000
-70.871429 6112.000000
-68.263336 5915.000000
-65.657089 5998.000000
-63.052715 6004.000000
-60.450207 6121.000000
-57.849552 5608.000000
-55.250759 6182.000000
-52.653824 6885.000000
-50.058743 6444.000000
-47.465515 6547.000000
-44.874138 6325.000000
-42.284607 6740.000000
-39.696918 5891.000000
-37.111080 6025.000000
-34.527084 6514.000000
-31.944925 5731.000000
-29.364613 6209.000000
-26.786127 5694.000000
-24.209484 6126.000000
-21.634666 6220.000000
-19.061689 6451.000000
-16.490532 6466.000000
-13.921208 6752.000000
-11.353710 7768.000000
-8.788031 6245.000000
-6.224177 6419.000000
-3.662137 5964.000000
-1.101921 5820.000000
1.456487 6144.000000
4.013074 6918.000000
6.567857 6695.000000
9.120822 6081.000000
11.671987 6764.000000
14.221338 6528.000000
16.768894 6561.000000
19.314638 6026.000000
21.858589 5763.000000
24.400736 6853.000000
26.941086 6776.000000
29.479650 6822.000000
32.016418 6197.000000
34.551384 5838.000000
37.084572 7255.000000
39.615978 6364.000000
42.145592 7117.000000
44.673409 6511.000000
47.199467 7829.000000
49.723736 5646.000000
52.246235 6140.000000
54.766937 6755.000000
57.285885 6322.000000
59.803059 6455.000000
62.318455 6636.000000
64.832069 5601.000000
67.343933 5754.000000
69.854050 6556.000000
72.362373 6587.000000
74.868942 5957.000000
77.373764 6307.000000
79.876831 6493.000000
82.378120 6224.000000
84.877670 6167.000000
87.375465 6391.000000
89.871529 5755.000000
92.365814 7226.000000
94.858360 5813.000000
97.349190 6886.000000
99.838249 7238.000000
102.325562 6390.000000
104.811150 6224.000000
107.294998 6402.000000
109.777100 5728.000000
112.257477 6565.000000
114.736130 6185.000000
117.213058 6480.000000
119.688232 7212.000000
122.161697 6785.000000
124.633430 5887.000000
127.103455 6674.000000
129.571732 6232.000000
132.038330 6292.000000
134.503174 5674.000000
136.966324 6154.000000
139.427734 7252.000000
141.887451 6864.000000
144.345444 6365.000000
146.801743 6020.000000
149.256332 5804.000000
151.709198 6869.000000
154.160385 6373.000000
156.609879 6554.000000
159.057648 6036.000000
161.503708 6540.000000
163.948090 8683.000000
166.390793 6487.000000
168.831802 6773.000000
171.271103 6316.000000
173.708694 7189.000000
176.144653 6595.000000
178.578873 6955.000000
181.011414 7130.000000
183.442307 6701.000000
185.871475 6779.000000
188.298996 6727.000000
190.724838 6346.000000
193.149002 6720.000000
195.571503 7170.000000
197.992310 7419.000000
200.411453 6495.000000
202.828934 6045.000000
205.244720 7585.000000
207.658859 7080.000000
210.071365 6298.000000
212.482193 6047.000000
214.891342 6258.000000
217.298859 7315.000000
219.704666 6168.000000
222.108887 6537.000000
224.511398 6679.000000
226.912292 6944.000000
229.311539 6463.000000
231.709122 6844.000000
234.105042 7318.000000
236.499344 6571.000000
238.891983 5864.000000
241.283005 6771.000000
243.672363 6573.000000
246.060104 6316.000000
248.446198 6983.000000
250.830658 6076.000000
253.213470 7967.000000
255.594711 6666.000000
257.974243 6732.000000
260.352203 6463.000000
262.728485 7516.000000
265.103210 7550.000000
267.476288 7864.000000
269.847717 6177.000000
272.217499 6410.000000
274.585724 5901.000000
276.952301 6309.000000
279.317291 6765.000000
281.680664 6043.000000
284.042389 6209.000000
286.402527 7046.000000
288.761047 6047.000000
291.117981 6534.000000
293.473297 6391.000000
295.827026 5979.000000
298.179108 6005.000000
300.529633 6359.000000
302.878571 6449.000000
305.225861 6706.000000
307.571625 6399.000000
309.915710 6526.000000
312.258270 7414.000000
314.599213 7534.000000
316.938538 7165.000000
319.276306 6894.000000
321.612518 7997.000000
323.947083 6280.000000
326.280090 6433.000000
328.611542 5995.000000
330.941406 6577.000000
333.269684 6411.000000
335.596344 7245.000000
337.921509 6371.000000
340.245056 6207.000000
342.567047 5991.000000
344.887482 7470.000000
347.206299 7675.000000
349.523560 6046.000000
351.839294 5862.000000
354.153442 6995.000000
356.466003 6364.000000
358.777008 6318.000000
361.086487 7021.000000
363.394440 6369.000000
365.700775 5678.000000
368.005524 6420.000000
370.308807 6384.000000
372.610474 6287.000000
374.910645 6398.000000
377.209259 6313.000000
379.506317 5761.000000
381.801819 6109.000000
384.095795 5863.000000
386.388184 5241.000000
388.679077 5583.000000
390.968445 6183.000000
393.256226 6207.000000
395.542480 6507.000000
397.827240 7027.000000
400.110382 6035.000000
402.392090 6434.000000
404.672272 6127.000000
406.950867 7282.000000
409.227936 6411.000000
411.503479 6679.000000
413.777496 6457.000000
416.050079 6350.000000
418.321045 6273.000000
420.590515 6431.000000
422.858490 7127.000000
425.124908 7258.000000
427.389832 6248.000000
429.653290 6239.000000
431.915161 6423.000000
434.175568 5986.000000
436.434418 6553.000000
438.691803 6133.000000
440.947693 5698.000000
443.202087 5803.000000
445.454956 5501.000000
447.706268 6866.000000
449.956177 6095.000000
452.204498 6233.000000
454.451385 5646.000000
456.696808 6455.000000
458.940674 6376.000000
461.183044 6794.000000
463.423920 5658.000000
465.663391 6680.000000
467.901276 5462.000000
470.137726 5880.000000
472.372650 6033.000000
474.606110 7372.000000
476.838135 6668.000000
479.068634 5641.000000
481.297638 6421.000000
483.525177 6355.000000
485.751221 5961.000000
487.975830 6549.000000
490.198975 5854.000000
492.420654 6387.000000
494.640778 6711.000000
496.859497 5611.000000
499.076721 6243.000000
501.292572 5537.000000
503.506805 6150.000000
505.719727 6407.000000
507.931061 6399.000000
510.140961 6855.000000
512.349426 6463.000000
514.556519 6584.000000
516.762024 6446.000000
518.966125 6546.000000
521.168701 6175.000000
523.369873 6511.000000
525.569702 6681.000000
527.768005 6893.000000
529.964783 5276.000000
532.160217 5878.000000
534.354126 5563.000000
536.546692 7470.000000
538.737732 6702.000000
540.927368 5969.000000
543.115601 6932.000000
545.302307 7087.000000
547.487549 6757.000000
549.671509 6220.000000
551.853882 6443.000000
554.034912 6069.000000
556.214417 6018.000000
558.392639 5806.000000
560.569336 6037.000000
562.744629 6410.000000
564.918518 6426.000000
567.090942 5909.000000
569.261963 6021.000000
571.431519 6355.000000
573.599792 5280.000000
575.766541 6449.000000
577.931824 6235.000000
580.095703 6102.000000
582.258301 5763.000000
584.419373 5988.000000
586.579041 5615.000000
588.737366 5831.000000
590.894165 6129.000000
593.049622 6594.000000
595.203674 5757.000000
597.356384 6186.000000
599.507568 7258.000000
601.657410 6815.000000
603.805908 6645.000000
605.952820 6062.000000
608.098511 6481.000000
610.242798 6472.000000
612.385620 7043.000000
614.526978 6143.000000
616.667114 6441.000000
618.805725 7582.000000
620.943054 5741.000000
623.078918 6599.000000
625.213379 6810.000000
627.346375 7158.000000
629.478210 6581.000000
631.608582 6550.000000
633.737549 6795.000000
635.865051 6469.000000
637.991272 6189.000000
640.115967 7307.000000
642.239441 6461.000000
644.361572 6791.000000
646.482239 6822.000000
648.601563 6535.000000
650.719482 5730.000000
652.836060 5647.000000
654.951233 6459.000000
657.065063 6436.000000
659.177429 5842.000000
661.288574 6153.000000
663.398315 5427.000000
665.506592 5994.000000
667.613708 6281.000000
669.719360 6853.000000
671.823547 5643.000000
673.926514 5743.000000
676.028076 7017.000000
678.128296 5338.000000
680.227112 6802.000000
682.324585 6199.000000
684.420776 7007.000000
686.515503 6174.000000
688.609009 6937.000000
690.701172 6621.000000
692.791809 7926.000000
694.881226 6627.000000
696.969360 6417.000000
699.056030 6003.000000
701.141479 6659.000000
703.225403 5168.000000
705.308105 5951.000000
707.389526 5875.000000
709.469482 7571.000000
711.548218 6178.000000
713.625488 5553.000000
715.701477 6551.000000
717.776184 6107.000000
719.849609 6915.000000
721.921509 6285.000000
723.992249 7371.000000
726.061646 5791.000000
728.129639 6443.000000
730.196289 6374.000000
732.261719 7062.000000
734.325806 5799.000000
736.388550 6118.000000
738.449951 6499.000000
740.510071 6585.000000
742.568787 6072.000000
744.626282 6618.000000
746.682495 6433.000000
748.737305 6722.000000
750.790833 6414.000000
752.842957 7461.000000
754.893860 5813.000000
756.943542 6678.000000
758.991760 6345.000000
761.038757 6133.000000
763.084473 6983.000000
765.128784 5371.000000
767.171814 5769.000000
769.213623 15123.000000
771.254089 7187.000000
773.293152 6347.000000
775.331055 6123.000000
777.367615 5983.000000
779.402954 5403.000000
781.436951 5742.000000
783.469543 6870.000000
785.500977 5491.000000
787.531006 12199.000000
789.559753 6058.000000
791.587341 6281.000000
793.613586 6284.000000
795.638428 5827.000000
797.662170 5559.000000
799.684509 6321.000000
801.705627 5902.000000
803.725403 6637.000000
805.743896 4923.000000
807.761169 6723.000000
809.777039 6747.000000
811.791748 5665.000000
813.805115 6427.000000
815.817261 6239.000000
817.828186 6155.000000
819.837769 6507.000000
821.846130 5307.000000
823.853088 5723.000000
825.858826 6011.000000
827.863342 5715.000000
829.866577 5635.000000
831.868530 6454.000000
833.869202 6102.000000
835.868652 5875.000000
837.866760 6302.000000
839.863770 7007.000000
841.859375 6237.000000
843.853821 5965.000000
845.846924 6191.000000
847.838806 6817.000000
849.829346 5587.000000
851.818604 6778.000000
853.806824 6015.000000
855.793640 5615.000000
857.779236 6462.000000
859.763550 7295.000000
861.746765 6305.000000
863.728577 6426.000000
865.709167 5851.000000
867.688477 7777.000000
869.666626 7110.000000
871.643433 6199.000000
873.618958 5909.000000
875.593445 6162.000000
877.566467 6023.000000
879.538452 5433.000000
881.509094 6355.000000
883.478577 6074.000000
885.446716 5521.000000
887.413696 5246.000000
889.379333 6118.000000
891.343811 5863.000000
893.307068 6024.000000
895.269104 6462.000000
897.229858 5829.000000
899.189392 6268.000000
901.147644 6731.000000
903.104797 6353.000000
905.060791 6016.000000
907.015381 6874.000000
908.968750 6469.000000
910.920959 6414.000000
912.871948 6359.000000
914.821655 7117.000000
916.770203 6292.000000
918.717529 6142.000000
920.663574 6057.000000
922.608337 6090.000000
924.552063 6267.000000
926.494629 5937.000000
928.435913 5524.000000
930.375854 6471.000000
932.314697 5696.000000
934.252258 5518.000000
936.188599 5934.000000
938.123779 5893.000000
940.057678 6070.000000
941.990479 5869.000000
943.922058 6724.000000
945.852478 5188.000000
947.781677 6406.000000
949.709534 7020.000000
951.636353 6626.000000
953.561890 5937.000000
955.486145 5373.000000
957.409302 6016.000000
959.331299 6704.000000
961.252014 7229.000000
963.171570 6430.000000
965.089966 5303.000000
967.007324 6392.000000
968.923218 6368.000000
970.838013 6138.000000
972.751587 5928.000000
974.664001 6378.000000
976.575195 6453.000000
978.485229 5476.000000
980.393982 6205.000000
982.301697 6100.000000
984.208191 6345.000000
986.113464 5739.000000
988.017639 6629.000000
989.920593 6167.000000
991.822327 6776.000000
993.722900 6546.000000
995.622314 6602.000000
997.520508 5207.000000
999.417542 6623.000000
1001.313354 6476.000000
1003.208008 7713.000000
1005.101563 5580.000000
1006.993835 7099.000000
1008.885193 6063.000000
1010.775208 5365.000000
1012.664001 6623.000000
1014.551636 6372.000000
1016.438110 6906.000000
1018.323425 6698.000000
1020.207581 5967.000000
1022.090515 5883.000000
1023.972412 6192.000000
1025.853027 5196.000000
1027.732544 5773.000000
1029.611084 6099.000000
1031.488281 5426.000000
1033.364136 6153.000000
1035.239014 5873.000000
1037.112915 6610.000000
1038.985352 6998.000000
1040.856812 6720.000000
1042.726929 5511.000000
1044.596069 5554.000000
1046.463989 5796.000000
1048.330811 7072.000000
1050.196533 6688.000000
1052.061035 6447.000000
1053.924438 6452.000000
1055.786499 6480.000000
1057.647583 5933.000000
1059.507568 6460.000000
1061.366211 6611.000000
1063.223755 5752.000000
1065.080200 6725.000000
1066.935547 5915.000000
1068.789673 5744.000000
1070.642944 6246.000000
1072.494751 6328.000000
1074.345581 6110.000000
1076.195190 6142.000000
1078.043579 5745.000000
1079.891113 7924.000000
1081.737305 5604.000000
1083.582275 6204.000000
1085.426392 5421.000000
1087.269165 5543.000000
1089.110718 6536.000000
1090.951538 5452.000000
1092.790771 5772.000000
1094.629272 6043.000000
1096.466431 6003.000000
1098.302368 6788.000000
1100.137329 6604.000000
1101.971069 5444.000000
1103.803833 5462.000000
1105.635254 6167.000000
1107.465820 7264.000000
1109.295044 6533.000000
1111.123291 6405.000000
1112.950317 7012.000000
1114.776367 5414.000000
1116.601196 6300.000000
1118.424927 7063.000000
1120.247437 6063.000000
1122.068848 5821.000000
1123.889404 5865.000000
1125.708496 6596.000000
1127.526733 7058.000000
1129.343628 6818.000000
1131.159668 6562.000000
1132.974487 6426.000000
1134.788208 5601.000000
1136.600830 5789.000000
1138.412231 5701.000000
1140.222656 6089.000000
1142.031982 6729.000000
1143.839966 6954.000000
1145.647217 5926.000000
1147.453003 5950.000000
1149.257935 5399.000000
1151.061768 5486.000000
1152.864380 6217.000000
1154.666138 6177.000000
1156.466431 5856.000000
1158.265747 6046.000000
1160.064087 5888.000000
1161.861084 5451.000000
1163.657349 5882.000000
1165.452271 6116.000000
1167.246094 6345.000000
1169.039063 7724.000000
1170.830688 5755.000000
1172.621338 6504.000000
1174.411011 6029.000000
1176.199219 5794.000000
1177.986572 6993.000000
1179.772827 6915.000000
1181.557983 5824.000000
1183.342041 5987.000000
1185.125000 7661.000000
1186.906982 5898.000000
1188.687744 5914.000000
1190.467529 6272.000000
1192.246216 6919.000000
1194.023926 6626.000000
1195.800415 7133.000000
1197.575806 6593.000000
1199.350098 6552.000000
1201.123291 6698.000000
1202.895630 6472.000000
1204.666626 6655.000000
1206.436768 5606.000000
1208.205688 6129.000000
1209.973511 6332.000000
1211.740479 5828.000000
1213.506104 5898.000000
1215.270752 7032.000000
1217.034302 6467.000000
1218.796753 5960.000000
1220.558350 6653.000000
1222.318726 5845.000000
1224.078003 6280.000000
1225.836426 6022.000000
1227.593628 7117.000000
1229.349731 6478.000000
1231.104736 5527.000000
1232.858887 6040.000000
1234.611694 5849.000000
1236.363525 5955.000000
1238.114502 5901.000000
1239.864136 4939.000000
1241.612915 6985.000000
1243.360352 6478.000000
1245.107056 6606.000000
1246.852539 6498.000000
1248.597168 6378.000000
1250.340454 6747.000000
1252.082764 6608.000000
1253.823975 5337.000000
1255.564331 5000.000000
1257.303589 5789.000000
1259.041626 6578.000000
1260.778809 7092.000000
1262.514771 6030.000000
1264.249756 6440.000000
1265.983765 7254.000000
1267.716797 5917.000000
1269.448608 6165.000000
1271.179443 6436.000000
1272.909058 7264.000000
1274.637817 5853.000000
1276.365479 5647.000000
1278.092041 5574.000000
1279.817749 5525.000000
1281.542114 6461.000000
1283.265625 5202.000000
1284.988159 6867.000000
1286.709717 6516.000000
1288.430054 6223.000000
1290.149414 6654.000000
1291.867676 7225.000000
1293.584961 6431.000000
1295.301270 5817.000000
1297.016357 6375.000000
1298.730469 6112.000000
1300.443604 5755.000000
1302.155884 6450.000000
1303.866943 8371.000000
1305.577026 5630.000000
1307.286011 6301.000000
1308.993774 6578.000000
1310.700928 7052.000000
1312.406616 5763.000000
1314.111572 6881.000000
1315.815552 6191.000000
1317.518311 5969.000000
1319.220093 6497.000000
1320.921021 5994.000000
1322.620605 9727.000000
1324.319336 31219.000000
1326.017334 5603.000000
1327.713989 6427.000000
1329.409546 7140.000000
1331.104248 6835.000000
1332.797729 5770.000000
1334.490356 5278.000000
1336.182129 7275.000000
1337.872559 6236.000000
1339.562256 6582.000000
1341.250854 6032.000000
1342.938354 7592.000000
1344.624878 5587.000000
1346.310303 6700.000000
1347.994751 5877.000000
1349.678345 7161.000000
1351.360718 6389.000000
1353.042114 5934.000000
1354.722656 6477.000000
1356.401978 6731.000000
1358.080688 5826.000000
1359.758057 6471.000000
1361.434326 5741.000000
1363.109619 5567.000000
1364.784180 6575.000000
1366.457520 6481.000000
1368.129883 6711.000000
1369.801270 5223.000000
1371.471680 6770.000000
1373.140991 6135.000000
1374.809326 5642.000000
1376.476807 5947.000000
1378.143188 6491.000000
1379.808594 6061.000000
1381.473022 5786.000000
1383.136230 5924.000000
1384.798828 5682.000000
1386.460083 6366.000000
1388.120483 6563.000000
1389.779785 6412.000000
1391.438110 6364.000000
1393.095703 6869.000000
1394.752075 6477.000000
1396.407593 7014.000000
1398.061890 6321.000000
1399.715332 5820.000000
1401.367676 6122.000000
1403.019287 6483.000000
1404.669678 7112.000000
1406.318970 6230.000000
1407.967529 7501.000000
1409.614990 7868.000000
1411.261475 6118.000000
1412.907104 6240.000000
1414.551758 5992.000000
1416.195190 6947.000000
1417.837769 7148.000000
1419.479248 6848.000000
1421.119873 6481.000000
1422.759521 6521.000000
1424.398071 5995.000000
1426.035767 6600.000000
1427.672363 6280.000000
1429.307983 5963.000000
1430.942871 6379.000000
1432.576660 5855.000000
1434.209351 6129.000000
1435.841064 5665.000000
1437.471924 6146.000000
1439.101685 6039.000000
1440.730347 7770.000000
1442.358398 5995.000000
1443.985352 6223.000000
1445.611084 6117.000000
1447.236206 6090.000000
1448.860229 6533.000000
1450.483276 6058.000000
1452.105347 5991.000000
1453.726318 7438.000000
1455.346313 6265.000000
1456.965576 6875.000000
1458.583496 5653.000000
1460.200806 16994.000000
1461.817139 5545.000000
1463.432251 7203.000000
1465.046509 6230.000000
1466.659912 5170.000000
1468.272217 5612.000000
1469.883667 6242.000000
1471.494263 6314.000000
1473.103638 5972.000000
1474.712036 6028.000000
1476.319580 6128.000000
1477.926147 6697.000000
1479.531982 5276.000000
1481.136597 6261.000000
1482.740356 5565.000000
1484.342896 6932.000000
1485.944824 5571.000000
1487.545532 5480.000000
1489.145508 5598.000000
1490.744385 6266.000000
1492.342407 6460.000000
1493.939331 6619.000000
1495.535400 6296.000000
1497.130493 5948.000000
1498.724609 5473.000000
1500.317993 6641.000000
1501.910278 5538.000000
1503.501343 5953.000000
1505.091919 6728.000000
1506.681152 6351.000000
1508.269775 6126.000000
1509.857300 6481.000000
1511.443726 6806.000000
1513.029419 6193.000000
1514.614014 6586.000000
1516.197754 6165.000000
1517.780396 6251.000000
1519.362305 6557.000000
1520.943115 6571.000000
1522.523193 6033.000000
1524.102051 6278.000000
1525.680054 6323.000000
1527.257324 6262.000000
1528.833374 5679.000000
1530.408691 5882.000000
1531.982910 6341.000000
1533.556396 5435.000000
1535.128662 5881.000000
1536.700195 6354.000000
1538.270752 6433.000000
1539.840454 6275.000000
1541.408936 5399.000000
1542.976685 6515.000000
1544.543579 5632.000000
1546.109253 6791.000000
1547.674194 5962.000000
1549.238037 4990.000000
1550.801270 7446.000000
1552.363159 6280.000000
1553.924438 5943.000000
1555.484619 5632.000000
1557.044067 5748.000000
1558.602417 6029.000000
1560.160034 6244.000000
1561.716553 7042.000000
1563.271851 5840.000000
1564.826538 6328.000000
1566.380493 5607.000000
1567.933472 6328.000000
1569.485107 5701.000000
1571.036011 5869.000000
1572.586182 6240.000000
1574.135376 6323.000000
1575.683228 5724.000000
1577.230591 5518.000000
1578.776978 5683.000000
1580.322510 5064.000000
1581.867065 6686.000000
1583.410400 6296.000000
1584.953125 6616.000000
1586.494995 6427.000000
1588.035767 6685.000000
1589.575562 5805.000000
1591.114624 6692.000000
1592.652588 5917.000000
1594.190063 6078.000000
1595.726196 5831.000000
1597.261230 6587.000000
1598.795776 6313.000000
1600.329346 5990.000000
1601.862061 5792.000000
1603.393188 6286.000000
1604.924072 6438.000000
1606.454102 5791.000000
1607.982910 6116.000000
1609.510620 6116.000000
1611.037720 5940.000000
1612.564087 5772.000000
1614.089478 6155.000000
1615.614014 5813.000000
1617.137207 5784.000000
1618.659668 5540.000000
1620.181396 6512.000000
1621.702271 6907.000000
1623.221680 15587.000000
1624.740601 6116.000000
1626.258789 6029.000000
1627.776123 5917.000000
1629.292358 6359.000000
1630.807251 7011.000000
1632.321655 6728.000000
1633.835327 5803.000000
1635.347900 6827.000000
1636.859253 5934.000000
1638.370239 6410.000000
1639.880127 6300.000000
1641.389160 6163.000000
1642.896851 5607.000000
1644.404175 6016.000000
1645.910645 7172.000000
1647.416138 6192.000000
1648.920776 6847.000000
1650.423950 6123.000000
1651.926514 6516.000000
1653.428711 6317.000000
1654.929565 6572.000000
1656.429321 7459.000000
1657.928223 5930.000000
1659.426758 6492.000000
1660.924072 6215.000000
1662.420654 5901.000000
1663.915649 6446.000000
1665.410400 6333.000000
1666.904297 5197.000000
1668.397217 5578.000000
1669.888794 20682.000000
1671.379883 6509.000000
1672.870361 6098.000000
1674.359741 5895.000000
1675.847656 6972.000000
1677.335327 6833.000000
1678.822021 6039.000000
1680.307861 5304.000000
1681.792847 6014.000000
1683.276367 6168.000000
1684.759644 6127.000000
1686.242065 5850.000000
1687.723389 6092.000000
1689.203247 6148.000000
1690.682861 5432.000000
1692.161743 6555.000000
1693.639648 6020.000000
1695.116577 6041.000000
1696.592285 5720.000000
1698.067627 6212.000000
1699.541748 6315.000000
1701.015259 5453.000000
1702.487305 5530.000000
1703.959106 6817.000000
1705.429932 6372.000000
1706.899902 7111.000000
1708.368530 5151.000000
1709.836670 5797.000000
1711.304077 6455.000000
1712.770386 5508.000000
1714.236084 5707.000000
1715.700073 6191.000000
1717.163940 6043.000000
1718.626953 6922.000000
1720.088989 6328.000000
1721.549805 6635.000000
1723.010010 5435.000000
1724.469482 5631.000000
1725.928101 6160.000000
1727.385742 5948.000000
1728.842041 6235.000000
1730.298096 6087.000000
1731.753174 6402.000000
1733.207275 5960.000000
1734.660156 6840.000000
1736.112793 5942.000000
1737.564331 6666.000000
1739.015137 5953.000000
1740.464966 6564.000000
1741.913452 5937.000000
1743.361572 7377.000000
1744.808838 6548.000000
1746.255371 6651.000000
1747.700317 6705.000000
1749.145020 6099.000000
1750.588867 5959.000000
1752.031860 5465.000000
1753.473389 6523.000000
1754.914673 6382.000000
1756.355103 6328.500000
1757.794556 6275.000000
1759.233032 5250.000000
1760.670532 6042.000000
1762.107544 7540.000000
1763.543579 5853.000000
1764.978760 7090.000000
1766.412476 6164.000000
1767.846069 6456.000000
1769.278687 6657.000000
1770.710449 5843.000000
1772.141357 5733.000000
1773.571045 6312.000000
1775.000000 6101.000000
1776.428467 6254.000000
1777.855957 6634.000000
1779.282104 6227.000000
1780.708008 5569.000000
1782.132813 6866.000000
1783.557007 5577.000000
1784.979736 6637.000000
1786.401978 6510.000000
1787.823486 6859.000000
1789.244263 5941.000000
1790.664063 5955.000000
1792.082520 6202.000000
1793.500488 6833.000000
1794.917847 5526.000000
1796.334351 6011.000000
1797.749390 6542.000000
1799.164063 5852.000000
1800.578125 6522.000000
1801.990967 5941.000000
1803.403198 6983.000000
1804.814087 7084.000000
1806.224487 7725.000000
1807.634155 6525.000000
1809.042847 5939.000000
1810.450439 5423.000000
1811.857544 6328.000000
1813.263794 6322.000000
1814.669067 6687.000000
1816.073242 5926.000000
1817.477051 5975.000000
1818.879883 6269.000000
1820.281860 5952.000000
1821.683228 5870.000000
1823.083130 6309.000000
1824.482422 6362.000000
1825.881226 6546.000000
1827.279175 7448.000000
1828.675781 5760.000000
1830.071777 6711.000000
1831.467041 5920.000000
1832.861694 8125.000000
1834.255371 5976.000000
1835.647705 6765.000000
1837.039551 6423.000000
1838.430786 5872.000000
1839.821045 7094.000000
1841.210083 5997.000000
1842.598755 6014.000000
1843.986450 5954.000000
1845.373413 5769.000000
1846.759033 6853.000000
1848.144409 5787.000000
1849.528931 6341.000000
1850.912720 6328.000000
1852.295410 6267.000000
1853.676880 5355.000000
1855.057861 6499.000000
1856.438354 6350.000000
1857.817871 5681.000000
1859.195923 5922.000000
1860.573853 6287.000000
1861.950806 7850.000000
1863.327026 6061.000000
1864.702393 6007.000000
1866.076294 5645.000000
1867.450073 5711.000000
1868.822998 6236.000000
1870.194824 6007.000000
1871.565674 6875.000000
1872.936157 5387.000000
1874.305542 6002.000000
1875.674438 6081.000000
1877.041748 7066.000000
1878.408936 5983.000000
1879.775146 5983.000000
1881.140625 6732.000000
1882.505371 7479.000000
1883.868530 6769.000000
1885.231567 6943.000000
1886.593750 6279.000000
1887.955078 6461.000000
1889.315063 5631.000000
1890.674683 5754.000000
1892.033691 6167.000000
1893.391724 6566.000000
1894.748901 7206.000000
1896.104858 5970.000000
1897.460571 7604.000000
1898.815308 5794.000000
1900.169189 5536.000000
1901.521973 5952.000000
1902.874268 5969.000000
1904.225830 5980.000000
1905.576538 6864.000000
1906.926025 6537.000000
1908.275024 6713.000000
1909.623169 5782.000000
1910.970703 6116.000000
1912.317505 6373.000000
1913.662720 6850.000000
1915.007690 6071.000000
1916.351929 5425.000000
1917.695313 6420.000000
1919.037354 5979.000000
1920.379150 6669.000000
1921.720093 6974.000000
1923.060303 6115.000000
1924.399536 6232.000000
1925.737793 6214.000000
1927.075439 6466.000000
1928.412354 6961.000000
1929.748413 6699.000000
1931.083252 5581.000000
1932.417725 6600.000000
1933.751465 7200.000000
1935.084351 6214.000000
1936.415771 5686.000000
1937.747314 6315.000000
1939.077515 6669.000000
1940.407227 5740.000000
1941.736084 6085.000000
1943.063721 5868.000000
1944.390869 5075.000000
1945.717285 5795.000000
1947.042969 6509.000000
1948.367310 5771.000000
1949.691406 6673.000000
1951.014648 6346.000000
1952.337158 6419.000000
1953.658569 5795.000000
1954.979004 7447.000000
1956.298828 6027.000000
1957.618286 5552.000000
1958.936768 6830.000000
1960.253906 5926.000000
1961.570679 5826.000000
1962.886719 6534.000000
1964.202026 6572.000000
1965.515869 6277.000000
1966.829468 5649.000000
1968.142334 6257.000000
1969.454346 6000.000000
1970.765747 5997.000000
1972.075806 6315.000000
1973.385376 5867.000000
1974.694214 6179.000000
1976.002441 6608.000000
1977.309326 6063.000000
1978.615601 7231.000000
1979.921509 5566.000000
1981.226196 6335.000000
1982.530396 5969.000000
1983.833374 5743.000000
1985.135986 7591.000000
1986.437622 6077.000000
1987.738647 6831.000000
1989.038086 6103.000000
1990.337646 6582.000000
1991.636108 5222.000000
1992.934082 6082.000000
1994.230469 6151.000000
1995.526855 5763.000000
1996.822266 5533.000000
1998.116943 6441.000000
1999.410767 5677.000000
2000.703369 6555.000000
2001.995483 5710.000000
2003.287109 7175.000000
2004.578003 6407.000000
2005.867310 6066.000000
2007.156372 6743.000000
2008.444702 5908.000000
2009.732300 6002.000000
2011.019043 6631.000000
2012.304688 5617.000000
2013.589966 6370.000000
2014.874268 6021.000000
2016.157959 5561.000000
2017.440308 6042.000000
2018.722290 6467.000000
2020.003784 6797.000000
2021.284302 5918.000000
2022.564087 6082.000000
2023.842773 6712.000000
2025.120728 5855.000000
2026.398193 5850.000000
2027.675049 6256.000000
2028.950195 5821.000000
2030.225464 6596.000000
2031.499756 6050.000000
2032.773071 5925.000000
2034.045532 5877.000000
2035.317627 6126.000000
2036.588623 6909.000000
2037.859375 6580.000000
2039.128784 6022.000000
2040.397095 6686.000000
2041.665405 6549.000000
2042.932739 5898.000000
2044.199341 6000.000000
2045.464722 5636.000000
2046.729492 5536.000000
2047.994019 5394.000000
2049.257324 5853.000000
2050.520264 6420.000000
2051.781250 6148.000000
2053.042725 6068.000000
2054.302979 5881.000000
2055.562500 6427.000000
2056.821289 6256.000000
2058.079102 6824.000000
2059.336426 6160.000000
2060.593018 5946.000000
2061.848145 6491.000000
2063.103271 5597.000000
2064.357422 5540.000000
2065.610840 5641.000000
2066.863525 6776.000000
2068.114990 6234.000000
2069.366211 6262.000000
2070.616699 5601.000000
2071.866455 5459.000000
2073.114746 6536.000000
2074.363037 6516.000000
2075.610352 7388.000000
2076.856934 5595.000000
2078.102783 5959.000000
2079.347412 6989.000000
2080.591553 7629.000000
2081.835205 5500.000000
2083.077881 6022.000000
2084.319336 6986.000000
2085.560547 5978.000000
2086.801270 6326.000000
2088.041016 6785.000000
2089.279541 7013.000000
2090.517578 6197.000000
2091.754883 5796.000000
2092.991943 6617.000000
2094.227539 6059.000000
2095.462402 6183.000000
2096.697021 5987.000000
2097.930664 5584.000000
2099.163330 6086.000000
2100.395264 6834.000000
2101.626709 6382.000000
2102.857178 6682.000000
2104.086914 5949.000000
2105.316406 5965.000000
2106.543945 6025.000000
2107.771729 5977.000000
2108.998779 6253.000000
2110.224854 5479.000000
2111.449463 6363.000000
2112.674316 7002.000000
2113.897949 7082.000000
2115.121094 6226.000000
2116.343018 7535.000000
2117.564697 5915.000000
2118.785400 6820.000000
2120.005371 5985.000000
2121.224854 6141.000000
2122.442871 6583.000000
2123.660889 7019.000000
2124.877930 5761.000000
2126.094482 5759.000000
2127.309326 6555.000000
2128.524414 6358.000000
2129.738525 6806.000000
2130.951904 5698.000000
2132.164551 6127.000000
2133.375732 5827.000000
2134.587158 6564.000000
2135.797363 6801.000000
2137.007080 5953.000000
2138.215332 6182.000000
2139.423584 5671.000000
2140.631104 5881.000000
2141.837402 7570.000000
2143.042969 5926.000000
2144.248291 5632.000000
2145.452637 5495.000000
2146.656250 6314.000000
2147.859375 6168.000000
2149.061035 6532.000000
2150.262451 5304.000000
2151.463135 6262.000000
2152.663086 6064.000000
2153.861816 5908.000000
2155.060303 6964.000000
2156.258301 6156.000000
2157.455322 6040.000000
2158.651611 5149.000000
2159.846680 5301.000000
2161.041504 6089.000000
2162.235596 5581.000000
2163.428711 6057.000000
2164.620850 6822.000000
2165.812744 5907.000000
2167.003906 6367.000000
2168.194092 6299.000000
2169.383545 6459.000000
2170.572510 6753.000000
2171.760498 6222.000000
2172.948242 5714.000000
2174.134521 5906.000000
2175.320068 6562.000000
2176.505371 5975.000000
2177.690186 5921.000000
2178.873779 6273.000000
2180.056641 7380.000000
2181.238525 6292.000000
2182.420166 6062.000000
2183.601318 6523.000000
2184.781250 5707.000000
2185.960205 5489.000000
2187.138672 6364.000000
2188.316895 6861.000000
2189.493896 7231.000000
2190.669922 6702.000000
2191.845703 6107.000000
2193.020996 5589.000000
2194.194824 6663.000000
2195.368164 6175.000000
2196.541260 6081.000000
2197.713135 6415.000000
2198.884521 7083.000000
2200.055420 6287.000000
2201.224609 6874.000000
2202.393799 7490.000000
2203.562500 6326.000000
2204.730225 5871.000000
2205.896973 5650.000000
2207.062988 7016.000000
2208.228516 6637.000000
2209.393799 5985.000000
2210.557617 6711.000000
2211.720947 5356.000000
2212.883057 6213.000000
2214.045410 6147.000000
2215.206543 6698.000000
2216.366699 6634.000000
2217.526367 6253.000000
2218.685791 6586.000000
2219.843994 6347.000000
2221.001221 6321.000000
2222.158203 6756.000000
2223.314453 6539.000000
2224.469971 6749.000000
2225.624756 6218.000000
2226.778564 6455.000000
2227.931396 6025.000000
2229.084717 6890.000000
2230.236084 6202.000000
2231.387207 6120.000000
2232.537598 6531.000000
2233.687500 7682.000000
2234.836426 6269.000000
2235.984863 5208.000000
2237.131836 6684.000000
2238.279053 6955.000000
2239.425049 6032.000000
2240.570801 7219.000000
2241.714844 7305.000000
2242.859131 6716.000000
2244.002441 6218.000000
2245.145020 6052.000000
2246.286621 5758.000000
2247.427979 5811.000000
2248.568359 6352.000000
2249.708008 6428.000000
2250.847168 5796.000000
2251.985107 5832.000000
2253.123047 6210.000000
2254.260010 5297.000000
2255.396240 6364.000000
2256.531494 6120.000000
2257.666016 7212.000000
2258.800293 6345.000000
2259.934082 5463.000000
2261.066406 6104.000000
2262.198242 6808.000000
2263.329590 6269.000000
2264.459961 6419.000000
2265.590088 8023.000000
2266.718994 6685.000000
2267.847412 6076.000000
2268.975342 5535.000000
2270.102295 6063.000000
2271.228516 5995.000000
2272.353760 6742.000000
2273.479004 6520.000000
2274.603516 6422.000000
2275.726807 5946.000000
2276.849365 6311.000000
2277.971436 5905.000000
2279.093018 7329.000000
2280.213867 6392.000000
2281.333496 6428.000000
2282.452637 7107.000000
2283.571533 7691.000000
2284.689697 7227.000000
2285.806885 5900.000000
2286.923096 6429.000000
2288.039063 6971.000000
2289.154297 6851.000000
2290.268799 7370.000000
2291.382080 5709.000000
2292.495361 6363.000000
2293.607910 5986.000000
2294.719727 5355.000000
2295.830811 6736.000000
2296.940674 6454.000000
2298.050049 6143.000000
2299.159180 6676.000000
2300.267334 6379.000000
2301.374512 6760.000000
2302.481445 5857.000000
2303.587646 6230.000000
2304.693359 6520.000000
2305.797607 6475.000000
2306.901611 5396.000000
2308.005127 5699.000000
2309.108154 6592.000000
2310.209961 7420.000000
2311.311035 7335.000000
2312.411621 6628.000000
2313.511719 5527.000000
2314.611084 6409.000000
2315.708984 6604.000000
2316.807373 6967.000000
2317.904297 8164.000000
2319.000977 6854.000000
2320.097168 5751.000000
2321.191650 6889.000000
2322.286133 7438.000000
2323.379883 5888.000000
2324.473389 6016.000000
2325.565186 6390.000000
2326.656982 6907.000000
2327.748047 6088.000000
2328.838379 6233.000000
2329.927734 6833.000000
2331.017090 5997.000000
2332.105225 6302.000000
2333.192871 6805.000000
2334.280273 6482.000000
2335.365967 6694.000000
2336.451416 7690.000000
2337.536621 6217.000000
2338.620850 6686.000000
2339.704102 5953.000000
2340.787109 6437.000000
2341.869141 7028.000000
2342.950928 5982.000000
2344.031982 7365.000000
2345.111816 6627.000000
2346.191162 5735.000000
2347.270020 6781.000000
2348.348389 6489.000000
2349.425293 6282.000000
2350.501953 6998.000000
2351.578369 6042.000000
2352.653809 6403.000000
2353.728271 5934.000000
2354.802490 6269.000000
2355.875977 6789.000000
2356.948975 6220.000000
2358.020752 6943.000000
2359.092285 6260.000000
2360.162842 6758.000000
2361.233154 7478.000000
2362.302490 7485.000000
2363.370850 6847.000000
2364.438965 6756.000000
2365.506348 7108.000000
2366.573242 7045.000000
2367.639404 6078.000000
2368.704346 6811.000000
2369.769287 7004.000000
2370.833496 6324.000000
2371.896973 6955.000000
2372.959229 5736.000000
2374.021484 6310.000000
2375.082764 6305.000000
2376.143799 5925.000000
2377.203613 6339.000000
2378.262695 7888.000000
2379.321777 6445.000000
2380.379883 7590.000000
2381.437256 6878.000000
2382.493652 8031.000000
2383.549805 7749.000000
2384.605469 6222.000000
2385.660400 7040.000000
2386.713867 6736.000000
2387.767578 6587.000000
2388.820313 6298.000000
2389.872559 6780.000000
2390.924072 6164.000000
2391.974609 6617.000000
2393.024902 6490.000000
2394.074219 6193.000000
2395.123535 6181.000000
2396.171387 6897.000000
2397.218750 6906.000000
2398.265869 6297.000000
2399.312012 6646.000000
2400.357422 6179.000000
2401.402100 6731.000000
2402.446777 7772.000000
2403.489990 7439.000000
2404.533203 6492.000000
2405.574951 5770.000000
2406.616943 6658.000000
2407.658203 7157.000000
2408.698486 6074.000000
2409.738037 6380.000000
2410.776611 6320.000000
2411.815430 6017.000000
2412.853027 6507.000000
2413.890381 6868.000000
2414.926514 7316.000000
2415.962402 6220.000000
2416.997559 6251.000000
2418.032227 6598.000000
2419.065430 7185.000000
2420.098877 6473.000000
2421.131348 6684.000000
2422.163574 6775.000000
2423.194336 7044.000000
2424.225098 6358.000000
2425.255371 6806.000000
2426.284424 6904.000000
2427.313477 6678.000000
2428.340820 7385.000000
2429.368652 6700.000000
2430.395264 7301.000000
2431.421631 6932.000000
2432.446533 7661.000000
2433.471680 6543.000000
2434.495850 7109.000000
2435.519775 6686.000000
2436.542480 5848.000000
2437.564453 6367.000000
2438.586182 6630.000000
2439.607178 6671.000000
2440.627686 6008.000000
2441.646973 6473.000000
2442.666260 6523.000000
2443.684570 8461.000000
2444.702637 6223.000000
2445.719238 6489.000000
2446.735840 6514.000000
2447.751709 6023.000000
2448.767578 7030.000000
2449.781982 6807.000000
2450.795654 5534.000000
2451.808838 7273.000000
2452.821777 5998.000000
2453.833984 7188.000000
2454.845215 6582.000000
2455.856201 7640.000000
2456.866455 6367.000000
2457.876221 7600.000000
2458.885010 5944.000000
2459.893066 5933.000000
2460.901123 6289.000000
2461.907959 7343.000000
2462.914551 5405.000000
2463.919922 7412.000000
2464.925049 6943.000000
2465.929932 5866.000000
2466.933594 6622.000000
2467.937012 6367.000000
2468.939453 7532.000000
2469.941650 7346.000000
2470.943359 6909.000000
2471.944092 6589.000000
2472.943848 6882.000000
2473.943604 6700.000000
2474.942383 5661.000000
2475.940674 6547.000000
2476.937988 7018.000000
2477.935059 6116.000000
2478.932129 6860.000000
2479.927734 5803.000000
2480.923340 7091.000000
2481.917236 6644.000000
2482.911133 8072.000000
2483.904541 6828.000000
2484.897461 6670.000000
2485.889404 7486.000000
2486.880615 7168.000000
2487.871582 6640.000000
2488.862061 5837.000000
2489.851563 6536.000000
2490.840332 6513.000000
2491.829102 5652.000000
2492.816895 6800.000000
2493.803467 6626.000000
2494.790039 8029.000000
2495.776123 6706.000000
2496.761475 7108.000000
2497.745850 8396.000000
2498.729980 6033.000000
2499.714111 6866.000000
2500.696777 5752.000000
2501.678955 6960.000000
2502.660645 6925.000000
2503.641602 7263.000000
2504.622070 6532.000000
2505.602295 5733.000000
2506.581055 6304.000000
2507.559570 7487.000000
2508.537598 6742.000000
2509.515137 7105.000000
2510.491699 6122.000000
2511.468018 5993.000000
2512.443604 6414.000000
2513.418701 6228.000000
2514.393311 6466.000000
2515.366699 7472.000000
2516.339844 6771.000000
2517.312744 6861.000000
2518.284668 6093.000000
2519.255859 6869.000000
2520.226563 6708.000000
2521.197021 7670.000000
2522.166748 8022.000000
2523.135498 6034.000000
2524.103516 6115.000000
2525.071533 7737.000000
2526.038574 6281.000000
2527.005371 5533.000000
2527.970947 7185.000000
2528.936523 7010.000000
2529.901367 7755.000000
2530.865723 6398.000000
2531.828857 6314.000000
2532.792236 5850.000000
2533.754639 6020.000000
2534.716797 6715.000000
2535.677734 6328.000000
2536.637939 6097.000000
2537.598389 6136.000000
2538.557861 6809.000000
2539.516602 6790.000000
2540.474365 6672.000000
2541.432373 6207.000000
2542.389648 6736.000000
2543.345947 6090.000000
2544.302002 7084.000000
2545.256836 6197.000000
2546.211914 7687.000000
2547.166260 7073.000000
2548.119873 6377.000000
2549.072510 7225.000000
2550.024902 6703.000000
2550.976807 6919.000000
2551.927979 6439.000000
2552.878418 7746.000000
2553.828369 7263.000000
2554.778076 7362.000000
2555.727051 6627.000000
2556.675537 6258.000000
2557.622803 7101.000000
2558.570068 6259.000000
2559.516602 6561.000000
2560.462646 6751.000000
2561.407715 7424.000000
2562.352539 6651.000000
2563.296875 7102.000000
2564.240723 6843.000000
2565.184082 6615.000000
2566.125977 6557.000000
2567.068115 6582.000000
2568.009521 6144.000000
2568.950195 7079.000000
2569.890137 7278.000000
2570.830078 5714.000000
2571.769043 6153.000000
2572.707764 7448.000000
2573.645508 7158.000000
2574.583008 5469.000000
2575.519775 7008.000000
2576.455811 6835.000000
2577.391357 7493.000000
2578.326172 6381.000000
2579.260986 5915.000000
2580.194824 7036.000000
2581.128174 7195.000000
2582.060791 5895.000000
2582.993164 6874.000000
2583.924805 5463.000000
2584.855957 7048.000000
2585.786621 7038.000000
2586.716064 6858.000000
2587.645508 7208.000000
2588.574463 6442.000000
2589.503174 7432.000000
2590.430176 7385.000000
2591.357422 5817.000000
2592.284180 6816.000000
2593.210205 6256.000000
2594.135986 5660.000000
2595.060547 7562.000000
2595.984863 7587.000000
2596.908691 5385.000000
2597.832031 7312.000000
2598.754395 6280.000000
2599.676514 6877.000000
2600.598145 8254.000000
2601.519043 6386.000000
2602.439209 5969.000000
2603.359131 6393.000000
2604.278564 6438.000000
2605.197754 6369.000000
2606.115967 5852.000000
2607.032959 5946.000000
2607.950195 7290.000000
2608.867188 5889.000000
2609.783203 7527.000000
2610.697998 6629.000000
2611.613281 6644.000000
2612.527832 6556.000000
2613.441406 6551.000000
2614.354980 6118.000000
2615.267334 7591.000000
2616.179688 7036.000000
2617.091064 6717.000000
2618.002197 5730.000000
2618.912598 7240.000000
2619.822754 6623.000000
2620.732178 6173.000000
2621.641113 6591.000000
2622.549072 6261.000000
2623.457275 6800.000000
2624.364502 6614.000000
2625.271240 7067.000000
2626.177246 5966.000000
2627.083008 6587.000000
2627.988037 6509.000000
2628.892822 7781.000000
2629.796875 6454.000000
2630.699951 6384.000000
2631.603027 6415.000000
2632.505127 5626.000000
2633.407227 6794.000000
2634.309082 6888.000000
2635.209229 6669.000000
2636.109619 6442.000000
2637.009277 6413.000000
2637.908691 6005.000000
2638.806641 6833.000000
2639.705078 6655.000000
2640.603027 6312.000000
2641.500244 6122.000000
2642.396240 6187.000000
2643.292236 6934.000000
2644.187988 6090.000000
2645.083008 6481.000000
2645.977783 6673.000000
2646.871094 7099.000000
2647.764404 6277.000000
2648.657471 6720.000000
2649.550293 6419.000000
2650.441406 7407.000000
2651.332764 6398.000000
2652.223633 7570.000000
2653.113770 7292.000000
2654.003662 6578.000000
2654.892334 7227.000000
2655.781250 6585.000000
2656.669678 6581.000000
2657.557129 7325.000000
2658.443604 6528.000000
2659.330566 7127.000000
2660.216797 6863.000000
2661.102539 6794.000000
2661.987061 6539.000000
2662.871582 6396.000000
2663.755859 6227.000000
2664.639404 7075.000000
2665.522461 7793.000000
2666.404785 7274.000000
2667.286621 6201.000000
2668.167725 6611.000000
2669.049072 6082.000000
2669.928955 6527.000000
2670.809082 7332.000000
2671.688477 7182.000000
2672.567871 6215.000000
2673.446533 6165.000000
2674.323486 6503.000000
2675.201172 6732.000000
2676.078125 6404.000000
2676.954346 8107.000000
2677.830078 7210.000000
2678.705078 6270.000000
2679.580322 7757.000000
2680.454590 6965.000000
2681.328369 7346.000000
2682.201416 6973.000000
2683.074219 6268.000000
2683.946777 6042.000000
2684.818604 6958.000000
2685.689697 6520.000000
2686.560547 6866.000000
2687.430908 7108.000000
2688.301025 6733.000000
2689.169434 6324.000000
2690.038574 7368.000000
2690.906982 7128.000000
2691.775146 6620.000000
2692.642578 7007.000000
2693.508789 5945.000000
2694.375488 7164.000000
2695.241211 7389.000000
2696.106934 7129.000000
2696.971191 7903.000000
2697.836182 6654.000000
2698.699707 7229.000000
2699.563477 5790.000000
2700.425781 7423.000000
2701.288574 6707.000000
2702.150391 5964.000000
2703.011719 6842.000000
2703.873047 6705.000000
2704.733154 7507.000000
2705.593262 7299.000000
2706.452881 6588.000000
2707.312256 6804.000000
2708.169922 7154.000000
2709.027832 6867.000000
2709.886230 7370.000000
2710.743408 6805.000000
2711.599854 6012.000000
2712.455811 6881.000000
2713.311768 6042.000000
2714.166992 6912.000000
2715.021484 6163.000000
2715.875488 6861.000000
2716.729492 7254.000000
2717.582520 6289.000000
2718.435791 6449.000000
2719.287354 7735.000000
2720.139404 6759.000000
2720.991211 6240.000000
2721.841797 6423.000000
2722.692383 6427.000000
2723.542480 7107.000000
2724.391846 7074.000000
2725.241211 6993.000000
2726.089355 6667.000000
2726.937012 6586.000000
2727.785156 6986.000000
2728.632080 6828.000000
2729.479492 5531.000000
2730.325439 7486.000000
2731.170654 6985.000000
2732.016357 6397.000000
2732.861084 6993.000000
2733.705811 7375.000000
2734.549316 6956.000000
2735.393066 7786.000000
2736.236084 7047.000000
2737.078613 6138.000000
2737.920166 6243.000000
2738.762207 6781.000000
2739.603271 6912.000000
2740.444092 5839.000000
2741.284668 5913.000000
2742.124023 7699.000000
2742.963379 6875.000000
2743.802734 6945.000000
2744.640869 6763.000000
2745.478516 7746.000000
2746.316162 6291.000000
2747.153320 7135.000000
2747.990234 6211.000000
2748.826660 6010.000000
2749.661865 6564.000000
2750.497314 6287.000000
2751.332275 6283.000000
2752.166504 6230.000000
2753.000488 6925.000000
2753.833984 6849.000000
2754.667480 7986.000000
2755.500000 6790.000000
2756.332031 7292.000000
2757.163574 6750.000000
2757.995117 7031.000000
2758.825684 7272.000000
2759.656494 7200.000000
2760.486084 7240.000000
2761.315674 6696.000000
2762.145020 7238.000000
2762.973633 6880.000000
2763.801758 6740.000000
2764.629395 7012.000000
2765.457031 6748.000000
2766.284180 7885.000000
2767.110596 5780.000000
2767.936523 7412.000000
2768.761963 6877.000000
2769.587158 7757.000000
2770.412354 7079.000000
2771.236328 6777.000000
2772.060303 6565.000000
2772.884277 7662.000000
2773.707031 6375.000000
2774.530029 6755.000000
2775.351807 6899.000000
2776.173584 6974.000000
2776.995361 6568.000000
2777.816162 7938.000000
2778.636230 6598.000000
2779.456543 6987.000000
2780.276367 7293.000000
2781.096191 6465.000000
2781.914063 5916.000000
2782.733154 8060.000000
2783.551025 6534.000000
2784.368652 6747.000000
2785.185791 7155.000000
2786.002441 7229.000000
2786.818848 7261.000000
2787.634766 6268.000000
2788.450439 5950.000000
2789.265137 6383.000000
2790.080322 7030.000000
2790.894775 7190.000000
2791.708740 6577.000000
2792.522461 7432.000000
2793.334961 8799.000000
2794.147705 6981.000000
2794.959961 7472.000000
2795.771729 7159.000000
2796.582764 7372.000000
2797.394531 6539.000000
2798.205078 7294.000000
2799.015625 7037.000000
2799.824707 7367.000000
2800.634521 8380.000000
2801.443604 7795.000000
2802.252441 6692.000000
2803.060791 7215.000000
2803.868164 6202.000000
2804.676025 6444.000000
2805.483154 6707.000000
2806.290039 6824.000000
2807.095703 7242.000000
2807.901855 6612.000000
2808.707275 6533.000000
2809.512695 7370.000000
2810.317383 6177.000000
2811.121094 7560.000000
2811.925293 7476.000000
2812.729004 6402.000000
2813.532471 6116.000000
2814.334473 6286.000000
2815.137207 7337.000000
2815.939209 7840.000000
2816.740967 6237.000000
2817.542236 6501.000000
2818.343018 7265.000000
2819.143311 6531.000000
2819.943848 6633.000000
2820.743408 7994.000000
2821.542480 7195.000000
2822.341553 6482.000000
2823.140381 6974.000000
2823.938721 6366.000000
2824.736084 7029.000000
2825.533691 7038.000000
2826.330566 6653.000000
2827.127686 7292.000000
2827.924072 7953.000000
2828.719727 6955.000000
2829.515381 7401.000000
2830.310791 7591.000000
2831.105713 7488.000000
2831.899902 6590.000000
2832.694092 6822.000000
2833.488037 5727.000000
2834.281494 6851.000000
2835.074219 7136.000000
2835.866699 8088.000000
2836.659180 7629.000000
2837.451416 7486.000000
2838.243164 6454.000000
2839.033936 6789.000000
2839.824707 8844.000000
2840.615723 7495.000000
2841.405762 6289.000000
2842.195313 7685.000000
2842.985107 7182.000000
2843.773926 7332.000000
2844.562744 7815.000000
2845.351563 7711.000000
2846.139404 7486.000000
2846.926758 7228.000000
2847.714355 7553.000000
2848.501465 7262.000000
2849.287842 6626.000000
2850.074219 7461.000000
2850.860352 7257.000000
2851.645996 7491.000000
2852.430664 7184.000000
2853.215820 6877.000000
2854.000732 7367.000000
2854.784912 7075.000000
2855.569092 6938.000000
2856.352051 8313.000000
2857.135254 6754.000000
2857.918213 6771.000000
2858.700684 7743.000000
2859.482910 6337.000000
2860.264648 6543.000000
2861.046143 7637.000000
2861.827881 7495.000000
2862.608887 7610.000000
2863.389160 6562.000000
2864.169189 6671.000000
2864.949219 8218.000000
2865.729004 7391.000000
2866.507813 8104.000000
2867.286865 7656.000000
2868.065430 6782.000000
2868.843750 6853.000000
2869.621582 7190.000000
2870.399170 6980.000000
2871.176514 7517.000000
2871.953613 6937.000000
2872.730225 6422.000000
2873.506348 7441.000000
2874.282471 7157.000000
2875.058105 8207.000000
2875.833496 7171.000000
2876.608398 6576.000000
2877.383057 7983.000000
2878.157715 6619.000000
2878.932129 7810.000000
2879.705811 6743.000000
2880.478760 7173.000000
2881.252441 6678.000000
2882.025146 7606.000000
2882.797852 7848.000000
2883.569824 8190.000000
2884.341553 6211.000000
2885.113770 6780.000000
2885.884766 6881.000000
2886.655273 6156.000000
2887.426270 8345.000000
2888.197266 7351.000000
2888.967529 7933.000000
2889.736816 7642.000000
2890.506348 6957.000000
2891.275879 7203.000000
2892.044922 7327.000000
2892.813477 7883.000000
2893.582031 7889.000000
2894.349609 6971.000000
2895.117676 6571.000000
2895.885254 7458.000000
2896.652832 8299.000000
2897.419189 7355.000000
2898.186523 6535.000000
2898.952637 7231.000000
2899.718994 6945.000000
2900.483887 8306.000000
2901.249268 6926.000000
2902.015137 6462.000000
2902.779541 7667.000000
2903.543945 7738.000000
2904.308594 8461.000000
2905.072266 6677.000000
2905.836670 8489.000000
2906.600342 6683.000000
2907.363281 8393.000000
2908.125977 6511.000000
2908.889160 8966.000000
2909.651855 7023.000000
2910.413330 6799.000000
2911.175293 6799.000000
