scanname Analyse083
timestamp 2017-02-10 22:02:47
ccdbias 954.926758
ccdgain 3.473401
sigmaread 8.960639
laserwavenum -0.680153
wavenumcorrection -0.157189
scancount 1
totalexposurems 10000
singleexposurems 10000
measurementstate Unknown
scanmode Manual
snr 274.313843 8.716690 7.348483
replacelist 5
374 52448.000000 14986.000000
672 43280.000000 31291.000000
673 42167.000000 5647.000000
754 38013.000000 17902.000000
888 31747.000000 5690.000000
peaks 58
278.315033 0.716022 0.000000 1.511908 0.000191
288.413605 0.715860 0.000000 0.692571 0.000040
302.946289 0.718536 0.000000 0.224876 0.000025
330.249756 0.736008 0.000000 0.941083 0.000151
336.375702 0.740768 0.000000 0.963638 0.000104
342.765900 0.739049 0.000000 0.748260 0.000034
349.109894 0.742201 0.000000 0.713944 0.000026
360.283020 0.743463 0.000000 0.334127 0.000017
386.363098 0.745890 0.000000 1.424456 0.000306
417.696289 0.724364 0.000000 0.644149 0.000210
460.413483 0.760079 0.000000 0.198248 0.000038
487.569702 0.773486 0.000000 0.807411 0.000106
534.808777 0.774855 0.000000 0.505463 0.000131
559.972412 0.813618 0.000000 1.205517 0.000217
571.729309 0.822035 0.000000 0.606449 0.000153
582.351746 0.814655 0.000000 0.603723 0.000101
660.270447 0.843053 0.000000 0.914792 0.000138
671.515198 0.837416 0.000000 0.648267 0.000115
715.848145 0.858197 0.000000 5.520934 0.001154
724.625610 0.839994 0.000000 1.173578 0.000051
739.484314 0.861010 0.000000 1.081858 0.000165
752.634949 0.866841 0.000000 1.005443 0.000048
764.917786 0.880430 0.000000 1.146207 0.000408
777.394653 0.883663 0.000000 5.912211 0.000942
825.993042 0.890133 0.000000 0.940718 0.000048
832.873474 0.884002 0.000000 0.315537 0.000149
854.986755 0.914791 0.000000 1.097954 0.000283
869.039612 0.910560 0.000000 0.800818 0.000159
937.448547 0.965923 0.000000 0.862819 0.000434
954.403259 0.946338 0.000000 3.548354 0.001061
1013.658386 0.973899 0.000000 2.029156 0.000763
1020.553162 0.974835 0.000000 0.822369 0.000133
1027.720825 0.986665 0.000000 0.491569 0.000229
1044.310181 0.985742 0.000000 4.113907 0.001321
1103.753418 0.961072 0.000000 2.053477 0.000560
1119.624023 0.989614 0.000000 1.920808 0.000385
1134.852905 0.969731 0.000000 2.260004 0.000913
1149.503662 0.941231 0.000000 2.373407 0.000928
1172.534912 0.919845 0.000000 1.104087 0.000386
1210.958618 0.932045 0.000000 0.439150 0.000170
1218.953613 0.936944 0.000000 0.981883 0.000078
1233.882080 0.934695 0.000000 1.463366 0.000347
1260.075562 0.950136 0.000000 1.785091 0.000895
1277.212646 0.909483 0.000000 0.429514 0.000448
1317.159546 0.973223 0.000000 11.355002 0.003152
1338.938477 0.930944 0.000000 7.285459 0.001120
1350.390015 0.909550 0.000000 0.992866 0.000305
1379.080688 0.884772 0.000000 0.401332 0.000054
1385.391724 0.885222 0.000000 0.300990 0.000172
1415.744019 0.868306 0.000000 0.881825 0.000452
1451.443604 0.924385 0.000000 1.680272 0.000500
1458.555542 0.948994 0.000000 5.976934 0.002833
1490.114990 0.870838 0.000000 2.514406 0.001447
1537.617432 0.819673 0.000000 0.165390 0.000047
1616.276855 0.845538 0.000000 7.907829 0.003087
1662.359619 0.821285 0.000000 10.973567 0.004647
1682.602295 0.787051 0.000000 5.569549 0.000970
1749.867554 0.744110 0.000000 5.026412 0.002466
finalresult GLS_NoMatch 0
spectrum 2048
-96.921303 44708.000000
-94.294434 44708.000000
-91.669441 45504.000000
-89.046341 45630.000000
-86.425110 46655.000000
-83.805779 46413.000000
-81.188309 46717.000000
-78.572716 46452.000000
-75.959000 46745.000000
-73.347160 47201.000000
-70.737183 47117.000000
-68.129089 47238.000000
-65.522842 47249.000000
-62.918472 47334.000000
-60.315964 47154.000000
-57.715309 47727.000000
-55.116516 47180.000000
-52.519581 46522.000000
-49.924500 46863.000000
-47.331272 46728.000000
-44.739895 47047.000000
-42.150364 46619.000000
-39.562675 47388.000000
-36.976837 47226.000000
-34.392841 46809.000000
-31.810682 47503.000000
-29.230370 46878.000000
-26.651884 47495.000000
-24.075241 47097.000000
-21.500423 46905.000000
-18.927446 46534.000000
-16.356289 46612.000000
-13.786965 46363.000000
-11.219467 45179.000000
-8.653788 46613.000000
-6.089933 46388.000000
-3.527893 46703.000000
-0.967677 46670.000000
1.590731 46206.000000
4.147318 45143.000000
6.702100 44875.000000
9.255065 44642.000000
11.806230 42783.000000
14.355581 41236.000000
16.903137 39386.000000
19.448881 39338.000000
21.992832 38347.000000
24.534979 35558.000000
27.075329 32316.000000
29.613894 28788.000000
32.150661 23763.000000
34.685627 17938.000000
37.218815 11117.000000
39.750221 7468.000000
42.279835 6931.000000
44.807652 6483.000000
47.333710 5960.000000
49.857979 5234.000000
52.380478 4660.000000
54.901180 4243.000000
57.420128 4454.000000
59.937302 5367.000000
62.452698 7155.000000
64.966316 7592.000000
67.478180 7282.000000
69.988297 5556.000000
72.496620 3750.000000
75.003189 3147.000000
77.508011 2616.000000
80.011078 2300.000000
82.512367 1955.000000
85.011917 1927.000000
87.509712 1870.000000
90.005775 1899.000000
92.500061 2205.000000
94.992607 2467.000000
97.483437 2485.000000
99.972496 2152.000000
102.459808 1969.000000
104.945396 1570.000000
107.429245 1463.000000
109.911346 1455.000000
112.391724 1468.000000
114.870377 1423.000000
117.347305 1356.000000
119.822479 1398.000000
122.295944 1490.000000
124.767677 1595.000000
127.237701 1734.000000
129.705978 2024.000000
132.172577 2423.000000
134.637421 2708.000000
137.100571 3159.000000
139.561981 5163.000000
142.021698 22328.000000
144.479691 30770.000000
146.935989 35764.000000
149.390579 38066.000000
151.843445 39199.000000
154.294632 41941.000000
156.744125 42801.000000
159.191895 44096.000000
161.637955 44165.000000
164.082336 42486.000000
166.525040 45198.000000
168.966049 45154.000000
171.405350 45815.000000
173.842941 45002.000000
176.278900 45733.000000
178.713120 45487.000000
181.145660 45328.000000
183.576553 45865.000000
186.005722 45896.000000
188.433243 45958.000000
190.859085 46405.000000
193.283249 46147.000000
195.705750 45798.000000
198.126556 45508.000000
200.545700 46352.000000
202.963181 46942.000000
205.378967 45426.000000
207.793106 45972.000000
210.205612 46716.000000
212.616440 47013.000000
215.025589 46885.000000
217.433105 45707.000000
219.838913 47051.000000
222.243134 46688.000000
224.645645 46523.000000
227.046539 46315.000000
229.445786 46782.000000
231.843369 46446.000000
234.239288 45925.000000
236.633591 46727.000000
239.026230 47335.000000
241.417252 46427.000000
243.806610 46732.000000
246.194351 46891.000000
248.580444 46247.000000
250.964905 47143.000000
253.347717 45290.000000
255.728958 46601.000000
258.108490 46525.000000
260.486450 46610.000000
262.862732 45629.000000
265.237457 45651.000000
267.610535 45342.000000
269.981964 46939.000000
272.351746 46748.000000
274.719971 47301.000000
277.086548 46878.000000
279.451538 46417.000000
281.814911 47125.000000
284.176636 46851.000000
286.536774 45998.000000
288.895294 47067.000000
291.252228 46647.000000
293.607544 46803.000000
295.961273 47126.000000
298.313354 47216.000000
300.663879 46782.000000
303.012817 46694.000000
305.360107 46267.000000
307.705872 46771.000000
310.049957 46665.000000
312.392517 45767.000000
314.733459 45580.000000
317.072784 45874.000000
319.410553 46103.000000
321.746765 45107.000000
324.081329 46843.000000
326.414337 46615.000000
328.745789 47136.000000
331.075653 46565.000000
333.403931 46710.000000
335.730591 45902.000000
338.055756 46774.000000
340.379303 46843.000000
342.701294 47127.000000
345.021729 45684.000000
347.340546 45380.000000
349.657806 47136.000000
351.973541 47273.000000
354.287689 46198.000000
356.600250 46764.000000
358.911255 46649.000000
361.220734 46040.000000
363.528687 46775.000000
365.835022 47480.000000
368.139771 46795.000000
370.443054 46650.000000
372.744720 46864.000000
375.044891 46771.000000
377.343506 46803.000000
379.640564 47363.000000
381.936066 46996.000000
384.230042 47292.000000
386.522430 47891.000000
388.813324 47477.000000
391.102692 46986.000000
393.390472 46863.000000
395.676727 46625.000000
397.961487 46149.000000
400.244629 47130.000000
402.526337 46755.000000
404.806519 47049.000000
407.085114 45798.000000
409.362183 46710.000000
411.637726 46481.000000
413.911743 46718.000000
416.184326 46715.000000
418.455292 46643.000000
420.724762 46715.000000
422.992737 46009.000000
425.259155 45844.000000
427.524078 46831.000000
429.787537 46789.000000
432.049408 46583.000000
434.309814 47082.000000
436.568665 46412.000000
438.826050 46887.000000
441.081940 47426.000000
443.336334 47313.000000
445.589203 47556.000000
447.840515 46180.000000
450.090424 46890.000000
452.338745 46743.000000
454.585632 47375.000000
456.831055 46524.000000
459.074921 46568.000000
461.317291 46312.000000
463.558167 47362.000000
465.797638 46282.000000
468.035522 47571.000000
470.271973 47248.000000
472.506897 46965.000000
474.740356 45716.000000
476.972382 46297.000000
479.202881 47418.000000
481.431885 46520.000000
483.659424 46674.000000
485.885468 47077.000000
488.110077 46431.000000
490.333221 47196.000000
492.554901 46631.000000
494.775024 46344.000000
496.993744 47338.000000
499.210968 46698.000000
501.426819 47428.000000
503.641052 46898.000000
505.853973 46528.000000
508.065308 46537.000000
510.275208 46119.000000
512.483643 46584.000000
514.690735 46453.000000
516.896240 46573.000000
519.100342 46414.000000
521.302917 46815.000000
523.504089 46396.000000
525.703918 46370.000000
527.902222 46046.000000
530.098999 47676.000000
532.294434 47123.000000
534.488342 47376.000000
536.680908 45420.000000
538.871948 46213.000000
541.061584 46931.000000
543.249817 46057.000000
545.436523 45767.000000
547.621765 46156.000000
549.805725 46705.000000
551.988098 46405.000000
554.169128 46730.000000
556.348633 46811.000000
558.526855 47033.000000
560.703552 46818.000000
562.878845 46558.000000
565.052734 46452.000000
567.225159 46974.000000
569.396179 46963.000000
571.565735 46679.000000
573.734009 47620.000000
575.900757 46452.000000
578.066040 46653.000000
580.229919 46818.000000
582.392517 47162.000000
584.553589 46811.000000
586.713257 47245.000000
588.871582 47154.000000
591.028381 46729.000000
593.183838 46224.000000
595.337891 47123.000000
597.490601 46726.000000
599.641785 45559.000000
601.791626 46115.000000
603.940125 46169.000000
606.087036 46818.000000
608.232727 46329.000000
610.377014 46434.000000
612.519836 46175.000000
614.661194 46635.000000
616.801331 46404.000000
618.939941 45137.000000
621.077271 47043.000000
623.213135 46267.000000
625.347595 45918.000000
627.480591 45667.000000
629.612427 46211.000000
631.742798 46187.000000
633.871765 45961.000000
635.999268 46369.000000
638.125488 46606.000000
640.250183 45442.000000
642.373657 46441.000000
644.495789 45925.000000
646.616455 45954.000000
648.735779 46160.000000
650.853699 47073.000000
652.970276 47043.000000
655.085449 46321.000000
657.199280 46260.000000
659.311646 46897.000000
661.422791 46554.000000
663.532532 47330.000000
665.640808 46078.000000
667.747925 46467.000000
669.853577 45926.000000
671.957764 46807.000000
674.060730 47000.000000
676.162292 45613.000000
678.262512 47365.000000
680.361328 45951.000000
682.458801 46318.000000
684.554993 45696.000000
686.649719 46502.000000
688.743225 45739.000000
690.835388 46046.000000
692.926025 44764.000000
695.015442 46060.000000
697.103577 46167.000000
699.190247 46658.000000
701.275696 45920.000000
703.359619 47312.000000
705.442322 46681.000000
707.523743 46617.000000
709.603699 45032.000000
711.682434 46240.000000
713.759705 47025.000000
715.835693 45998.000000
717.910400 46470.000000
719.983826 45464.000000
722.055725 46256.000000
724.126465 45177.000000
726.195862 46768.000000
728.263855 46015.000000
730.330505 46092.000000
732.395935 45441.000000
734.460022 46757.000000
736.522766 46284.000000
738.584167 45935.000000
740.644287 45800.000000
742.703003 46406.000000
744.760498 45801.000000
746.816711 46020.000000
748.871521 45707.000000
750.925049 46039.000000
752.977173 44988.000000
755.028076 46641.000000
757.077759 45756.000000
759.125977 46065.000000
761.172974 46227.000000
763.218689 45264.000000
765.263000 47074.000000
767.306030 46643.000000
769.347839 46076.500000
771.388306 45510.000000
773.427368 46037.000000
775.465271 46353.000000
777.501831 46402.000000
779.537170 47036.000000
781.571167 46649.000000
783.603760 45485.000000
785.635193 46843.000000
787.665222 40855.000000
789.693970 46384.000000
791.721558 46017.000000
793.747803 46039.000000
795.772644 46535.000000
797.796387 46813.000000
799.818726 46036.000000
801.839844 46470.000000
803.859619 45721.000000
805.878113 47425.000000
807.895386 45726.000000
809.911255 45504.000000
811.925964 46520.000000
813.939331 45874.000000
815.951477 46046.000000
817.962402 46141.000000
819.971985 45612.000000
821.980347 46904.000000
823.987305 46480.000000
825.993042 46077.000000
827.997559 46430.000000
830.000793 46544.000000
832.002747 45632.000000
834.003418 46099.000000
836.002869 46225.000000
838.000977 45787.000000
839.997986 45109.000000
841.993591 45888.000000
843.988037 46286.000000
845.981140 45910.000000
847.973022 45241.000000
849.963562 46490.000000
851.952820 45384.000000
853.941040 46160.000000
855.927856 46381.000000
857.913452 45730.000000
859.897766 44792.000000
861.880981 45803.000000
863.862793 45732.000000
865.843384 46334.000000
867.822693 44476.000000
869.800842 45128.000000
871.777649 46046.000000
873.753174 46100.000000
875.727661 46033.000000
877.700684 46196.000000
879.672668 46688.000000
881.643311 45817.000000
883.612793 45971.000000
885.580933 46537.000000
887.547913 46836.000000
889.513550 45872.000000
891.478027 46141.000000
893.441284 45886.000000
895.403320 45418.000000
897.364075 46008.000000
899.323608 45448.000000
901.281860 45134.000000
903.239014 45428.000000
905.195007 45775.000000
907.149597 44832.000000
909.102966 45160.000000
911.055176 45172.000000
913.006165 45268.000000
914.955872 44462.000000
916.904419 45260.000000
918.851746 45300.000000
920.797791 45352.000000
922.742554 45324.000000
924.686279 45047.000000
926.628845 45264.000000
928.570129 45708.000000
930.510071 44740.000000
932.448914 45585.000000
934.386475 45765.000000
936.322815 45240.000000
938.257996 45407.000000
940.191895 45116.000000
942.124695 45290.000000
944.056274 44527.000000
945.986694 46052.000000
947.915894 44862.000000
949.843750 44281.000000
951.770569 44604.000000
953.696106 45359.000000
955.620361 45911.000000
957.543518 45240.000000
959.465515 44563.000000
961.386230 43973.000000
963.305786 44790.000000
965.224182 45901.000000
967.141541 44847.000000
969.057434 44834.000000
970.972229 45129.000000
972.885803 45252.000000
974.798218 44870.000000
976.709412 44757.000000
978.619446 45704.000000
980.528198 44921.000000
982.435913 44952.000000
984.342407 44676.000000
986.247681 45374.000000
988.151855 44276.000000
990.054810 44758.000000
991.956543 44185.000000
993.857117 44380.000000
995.756531 44300.000000
997.654724 45596.000000
999.551758 44336.000000
1001.447571 44259.000000
1003.342224 43019.000000
1005.235779 45092.000000
1007.128052 43468.000000
1009.019409 44512.000000
1010.909424 45262.000000
1012.798218 43969.000000
1014.685852 44221.000000
1016.572327 43724.000000
1018.457642 43828.000000
1020.341797 44557.000000
1022.224731 44674.000000
1024.106689 44345.000000
1025.987305 45367.000000
1027.866821 44747.000000
1029.745361 44545.000000
1031.622559 45201.000000
1033.498413 44497.000000
1035.373291 44809.000000
1037.247192 44109.000000
1039.119629 43734.000000
1040.991089 43953.000000
1042.861206 45197.000000
1044.730347 45142.000000
1046.598267 44917.000000
1048.465088 43652.000000
1050.330811 43947.000000
1052.195313 44193.000000
1054.058716 44188.000000
1055.920776 44189.000000
1057.781860 44757.000000
1059.641846 44059.000000
1061.500488 43874.000000
1063.358032 44727.000000
1065.214478 43767.000000
1067.069824 44609.000000
1068.923950 44573.000000
1070.777222 44140.000000
1072.629028 43942.000000
1074.479858 44130.000000
1076.329468 44143.000000
1078.177856 44351.000000
1080.025391 42075.000000
1081.871582 44376.000000
1083.716553 43628.000000
1085.560669 44339.000000
1087.403442 44115.000000
1089.244995 43011.000000
1091.085815 43931.000000
1092.925049 43484.000000
1094.763550 43029.000000
1096.600708 43082.000000
1098.436646 42087.000000
1100.271606 42251.000000
1102.105347 43325.000000
1103.938110 43014.000000
1105.769531 42476.000000
1107.600098 41325.000000
1109.429321 41997.000000
1111.257568 41971.000000
1113.084595 41196.000000
1114.910645 42920.000000
1116.735474 41957.000000
1118.559204 41246.000000
1120.381714 42238.000000
1122.203125 42424.000000
1124.023682 42421.000000
1125.842773 41801.000000
1127.661011 41320.000000
1129.477905 41539.000000
1131.293945 41676.000000
1133.108765 41863.000000
1134.922485 42610.000000
1136.735107 42553.000000
1138.546509 42669.000000
1140.356934 42121.000000
1142.166260 41461.000000
1143.974243 41200.000000
1145.781494 42130.000000
1147.587280 41946.000000
1149.392212 42302.000000
1151.196045 42182.000000
1152.998657 41373.000000
1154.800415 41265.000000
1156.600708 41153.000000
1158.400024 40933.000000
1160.198364 40961.000000
1161.995361 41218.000000
1163.791626 40535.000000
1165.586548 40271.000000
1167.380371 39826.000000
1169.173340 38282.000000
1170.964966 40184.000000
1172.755615 39138.000000
1174.545288 39569.000000
1176.333496 39624.000000
1178.120850 37973.000000
1179.907104 38465.000000
1181.692261 39321.000000
1183.476318 38990.000000
1185.259277 37160.000000
1187.041260 38906.000000
1188.822021 38742.000000
1190.601807 38258.000000
1192.380493 37500.000000
1194.158203 37632.000000
1195.934692 37000.000000
1197.710083 37377.000000
1199.484375 37331.000000
1201.257568 36961.000000
1203.029907 37080.000000
1204.800903 36792.000000
1206.571045 37753.000000
1208.339966 37215.000000
1210.107788 37085.000000
1211.874756 37595.000000
1213.640381 37457.000000
1215.405029 36419.000000
1217.168579 36885.000000
1218.931030 37378.000000
1220.692627 36583.000000
1222.453003 37446.000000
1224.212280 37073.000000
1225.970703 37446.000000
1227.727905 36392.000000
1229.484009 37137.000000
1231.239014 38016.000000
1232.993164 37562.000000
1234.745972 37835.000000
1236.497803 37636.000000
1238.248779 37714.000000
1239.998413 38751.000000
1241.747192 36655.000000
1243.494629 37343.000000
1245.241333 37084.000000
1246.986816 37115.000000
1248.731445 37025.000000
1250.474731 36635.000000
1252.217041 36682.000000
1253.958252 37804.000000
1255.698608 37986.000000
1257.437866 37241.000000
1259.175903 36563.000000
1260.913086 36061.000000
1262.649048 37113.000000
1264.384033 36852.000000
1266.118042 36261.000000
1267.851074 37614.000000
1269.582886 37354.000000
1271.313721 37141.000000
1273.043335 36305.000000
1274.772095 37562.000000
1276.499756 37755.000000
1278.226318 37752.000000
1279.952026 37738.000000
1281.676392 36795.000000
1283.399902 37981.000000
1285.122437 36197.000000
1286.843994 36488.000000
1288.564331 36831.000000
1290.283691 36254.000000
1292.001953 35617.000000
1293.719238 36254.000000
1295.435547 36812.000000
1297.150635 36073.000000
1298.864746 36288.000000
1300.577881 36475.000000
1302.290161 35756.000000
1304.001221 33945.000000
1305.711304 36834.000000
1307.420288 35720.000000
1309.128052 35562.000000
1310.835205 35276.000000
1312.540894 36498.000000
1314.245850 35549.000000
1315.949829 36479.000000
1317.652588 36872.000000
1319.354370 36440.000000
1321.055298 37081.000000
1322.754883 33414.000000
1324.453613 34967.000000
1326.151611 22606.000000
1327.848267 33223.000000
1329.543823 32545.000000
1331.238525 32603.000000
1332.932007 33481.000000
1334.624634 33828.000000
1336.316406 31967.000000
1338.006836 32987.000000
1339.696533 32709.000000
1341.385132 33195.000000
1343.072632 31688.000000
1344.759155 33583.000000
1346.444580 32514.000000
1348.129028 33474.000000
1349.812622 32369.000000
1351.494995 33204.000000
1353.176392 33746.000000
1354.856934 33285.000000
1356.536255 33351.000000
1358.214966 34091.000000
1359.892334 33661.000000
1361.568604 34369.000000
1363.243896 34514.000000
1364.918457 33651.000000
1366.591797 33794.000000
1368.264160 33334.000000
1369.935547 34702.000000
1371.605957 33153.000000
1373.275269 33689.000000
1374.943604 34065.000000
1376.611084 33681.000000
1378.277466 33128.000000
1379.942871 33214.000000
1381.607300 33310.000000
1383.270508 33093.000000
1384.933105 33210.000000
1386.594360 32507.000000
1388.254761 32311.000000
1389.914063 32424.000000
1391.572388 32142.000000
1393.229980 31837.000000
1394.886353 32126.000000
1396.541870 31571.000000
1398.196167 32048.000000
1399.849609 32419.000000
1401.501953 32190.000000
1403.153564 31751.000000
1404.803955 30857.000000
1406.453247 31337.000000
1408.101807 29879.000000
1409.749268 29219.000000
1411.395752 30481.000000
1413.041382 30182.000000
1414.686035 30398.000000
1416.329468 29410.000000
1417.972046 29339.000000
1419.613525 29338.000000
1421.254150 29596.000000
1422.893799 29487.000000
1424.532349 29757.000000
1426.170044 29022.000000
1427.806641 29328.000000
1429.442261 29592.000000
1431.077148 29146.000000
1432.710938 29658.000000
1434.343628 29403.000000
1435.975342 29928.000000
1437.606201 29593.000000
1439.235962 29865.000000
1440.864624 28375.000000
1442.492676 30119.000000
1444.119629 29972.000000
1445.745361 30234.000000
1447.370483 30558.000000
1448.994507 30533.000000
1450.617554 31185.000000
1452.239624 31515.000000
1453.860596 30399.000000
1455.480591 31503.000000
1457.099854 30927.000000
1458.717773 32174.000000
1460.335083 31927.500000
1461.951416 31681.000000
1463.566528 28703.000000
1465.180786 29526.000000
1466.794189 30353.000000
1468.406494 30119.000000
1470.017944 29394.000000
1471.628540 29257.000000
1473.237915 29505.000000
1474.846313 29399.000000
1476.453857 29141.000000
1478.060425 28340.000000
1479.666260 29542.000000
1481.270874 28246.000000
1482.874634 28755.000000
1484.477173 27194.000000
1486.079102 28096.000000
1487.679810 28001.000000
1489.279785 27917.000000
1490.878662 27489.000000
1492.476685 27404.000000
1494.073608 27448.000000
1495.669678 27862.000000
1497.264771 28397.000000
1498.858887 28894.000000
1500.452271 27801.000000
1502.044556 28656.000000
1503.635620 27897.000000
1505.226196 27295.000000
1506.815430 27449.000000
1508.404053 27518.000000
1509.991577 27071.000000
1511.578003 26670.000000
1513.163696 27183.000000
1514.748291 26670.000000
1516.332031 27009.000000
1517.914673 26899.000000
1519.496582 26468.000000
1521.077393 26279.000000
1522.657471 26540.000000
1524.236328 26122.000000
1525.814331 25767.000000
1527.391602 25585.000000
1528.967651 25943.000000
1530.542969 25656.000000
1532.117188 25395.000000
1533.690674 25797.000000
1535.262939 25626.000000
1536.834473 25426.000000
1538.405029 25271.000000
1539.974731 25017.000000
1541.543213 25662.000000
1543.110962 24788.000000
1544.677856 25440.000000
1546.243530 24523.000000
1547.808472 24994.000000
1549.372314 25553.000000
1550.935547 23911.000000
1552.497437 24595.000000
1554.058716 24641.000000
1555.618896 24712.000000
1557.178345 24654.000000
1558.736694 24683.000000
1560.294312 24473.000000
1561.850830 23930.000000
1563.406128 24501.000000
1564.960815 24272.000000
1566.514771 24733.000000
1568.067749 24318.000000
1569.619385 24736.000000
1571.170288 24718.000000
1572.720459 24523.000000
1574.269653 24386.000000
1575.817505 24668.000000
1577.364868 24680.000000
1578.911255 24605.000000
1580.456787 25266.000000
1582.001343 24464.000000
1583.544678 24723.000000
1585.087402 24521.000000
1586.629272 24670.000000
1588.170044 24292.000000
1589.709839 24792.000000
1591.248901 24169.000000
1592.786865 24479.000000
1594.324341 24420.000000
1595.860474 24781.000000
1597.395508 24104.000000
1598.930054 24005.000000
1600.463623 24189.000000
1601.996338 24329.000000
1603.527466 24323.000000
1605.058350 24192.000000
1606.588379 24307.000000
1608.117188 23879.000000
1609.644897 24014.000000
1611.171997 24334.000000
1612.698364 24523.000000
1614.223755 24182.000000
1615.748291 24470.000000
1617.271484 24540.000000
1618.793945 25380.000000
1620.315674 25406.000000
1621.836548 25905.000000
1623.355957 18013.000000
1624.874878 24092.000000
1626.393066 23951.000000
1627.910400 23963.000000
1629.426636 23885.000000
1630.941528 23450.000000
1632.455933 23315.000000
1633.969604 23694.000000
1635.482178 23290.000000
1636.993530 23506.000000
1638.504517 23213.000000
1640.014404 23269.000000
1641.523438 23149.000000
1643.031128 23121.000000
1644.538452 22988.000000
1646.044922 22514.000000
1647.550415 22951.000000
1649.055054 22590.000000
1650.558228 22705.000000
1652.060791 22405.000000
1653.562988 22380.000000
1655.063843 22219.000000
1656.563599 21645.000000
1658.062500 21914.000000
1659.561035 21774.000000
1661.058350 21788.000000
1662.554932 21686.000000
1664.049927 21517.000000
1665.544678 21419.000000
1667.038574 23405.000000
1668.531494 18144.500000
1670.023071 12884.000000
1671.514160 20881.000000
1673.004639 20785.000000
1674.494019 20798.000000
1675.981934 20406.000000
1677.469604 20444.000000
1678.956299 20875.000000
1680.442139 20857.000000
1681.927124 20648.000000
1683.410645 20225.000000
1684.893921 20056.000000
1686.376343 20254.000000
1687.857666 20034.000000
1689.337524 20039.000000
1690.817139 20098.000000
1692.296021 20019.000000
1693.773926 19600.000000
1695.250854 19892.000000
1696.726563 20005.000000
1698.201904 19944.000000
1699.676025 19814.000000
1701.149536 19836.000000
1702.621582 19893.000000
1704.093384 19695.000000
1705.564209 19833.000000
1707.034180 19661.000000
1708.502808 20016.000000
1709.970947 19786.000000
1711.438354 19695.000000
1712.904663 19674.000000
1714.370361 19686.000000
1715.834351 19712.000000
1717.298218 19723.000000
1718.761230 19534.000000
1720.223267 19721.000000
1721.684082 19733.000000
1723.144287 19792.000000
1724.603760 19769.000000
1726.062378 19736.000000
1727.520020 19666.000000
1728.976318 19498.000000
1730.432373 19556.000000
1731.887451 19538.000000
1733.341553 19423.000000
1734.794434 19460.000000
1736.247070 19240.000000
1737.698608 19319.000000
1739.149414 19143.000000
1740.599243 19131.000000
1742.047729 19048.000000
1743.495850 18832.000000
1744.943115 18821.000000
1746.389648 18706.000000
1747.834595 18645.000000
1749.279297 18755.000000
1750.723145 18644.000000
1752.166138 18773.000000
1753.607666 18860.000000
1755.048950 22494.000000
1756.489380 13170.000000
1757.928833 18405.000000
1759.367310 18198.000000
1760.804810 18153.000000
1762.241821 17915.000000
1763.677856 18052.000000
1765.113037 17915.000000
1766.546753 18011.000000
1767.980347 18342.000000
1769.412964 18014.000000
1770.844727 18201.000000
1772.275635 18246.000000
1773.705322 17931.000000
1775.134277 17616.000000
1776.562744 17379.000000
1777.990234 16793.000000
1779.416382 16040.000000
1780.842285 17242.000000
1782.267090 16987.000000
1783.691284 17117.000000
1785.114014 16965.000000
1786.536255 16881.000000
1787.957764 16832.000000
1789.378540 16949.000000
1790.798340 16637.000000
1792.216797 16330.000000
1793.634766 16506.000000
1795.052124 16531.000000
1796.468628 16453.000000
1797.883667 16447.000000
1799.298340 16313.000000
1800.712402 16232.000000
1802.125244 16502.000000
1803.537476 16297.000000
1804.948364 16194.000000
1806.358765 16357.000000
1807.768433 16149.000000
1809.177124 16325.000000
1810.584717 16347.000000
1811.991821 16136.000000
1813.398071 16378.000000
1814.803345 16319.000000
1816.207520 16430.000000
1817.611328 16419.000000
1819.014160 16296.000000
1820.416138 16205.000000
1821.817505 16198.000000
1823.217407 16176.000000
1824.616699 16322.000000
1826.015503 16243.000000
1827.413452 16102.000000
1828.810059 16160.000000
1830.206055 16112.000000
1831.601318 16047.000000
1832.995972 15847.000000
1834.389648 16153.000000
1835.781982 16041.000000
1837.173828 15943.000000
1838.565063 15946.000000
1839.955322 15903.000000
1841.344360 15858.000000
1842.733032 15841.000000
1844.120728 15846.000000
1845.507690 15777.000000
1846.893311 15579.000000
1848.278687 15752.000000
1849.663208 15490.000000
1851.046997 15591.000000
1852.429688 15457.000000
1853.811157 15274.000000
1855.192139 15120.000000
1856.572632 15271.000000
1857.952148 15110.000000
1859.330200 15262.000000
1860.708130 15036.000000
1862.085083 15004.000000
1863.461304 14858.000000
1864.836670 14744.000000
1866.210571 14771.000000
1867.584351 14593.000000
1868.957275 14469.000000
1870.329102 14376.000000
1871.699951 14388.000000
1873.070435 14393.000000
1874.439819 14389.000000
1875.808716 14298.000000
1877.176025 14140.000000
1878.543213 13975.000000
1879.909424 14197.000000
1881.274902 14035.000000
1882.639648 13997.000000
1884.002808 14067.000000
1885.365845 13970.000000
1886.728027 13994.000000
1888.089355 13839.000000
1889.449341 13918.000000
1890.808960 13779.000000
1892.167969 13789.000000
1893.526001 13732.000000
1894.883179 13543.000000
1896.239136 13673.000000
1897.594849 13626.000000
1898.949585 13695.000000
1900.303467 13856.000000
1901.656250 13779.000000
1903.008545 13530.000000
1904.360107 13676.000000
1905.710815 13769.000000
1907.060303 13715.000000
1908.409302 13545.000000
1909.757446 13545.000000
1911.104980 13679.000000
1912.451782 13422.000000
1913.796997 13570.000000
1915.141968 13586.000000
1916.486206 13703.000000
1917.829590 13759.000000
1919.171631 13704.000000
1920.513428 13751.000000
1921.854370 13460.000000
1923.194580 13574.000000
1924.533813 13626.000000
1925.872070 13645.000000
1927.209717 13574.000000
1928.546631 13491.000000
1929.882690 13472.000000
1931.217529 13576.000000
1932.552002 13354.000000
1933.885742 13344.000000
1935.218628 13431.000000
1936.550049 13168.000000
1937.881592 13156.000000
1939.211792 13000.000000
1940.541504 13305.000000
1941.870361 13243.000000
1943.197998 13239.000000
1944.525146 13204.000000
1945.851563 13013.000000
1947.177246 13123.000000
1948.501587 13002.000000
1949.825684 13006.000000
1951.148926 12868.000000
1952.471436 12966.000000
1953.792847 12789.000000
1955.113281 12736.000000
1956.433105 12724.000000
1957.752563 12789.000000
1959.071045 12437.000000
1960.388184 12482.000000
1961.704956 12452.000000
1963.020996 12425.000000
1964.336304 12362.000000
1965.650146 12354.000000
1966.963745 12499.000000
1968.276611 12273.000000
1969.588623 12406.000000
1970.900024 12193.000000
1972.210083 12031.000000
1973.519653 12093.000000
1974.828491 12002.000000
1976.136719 11884.000000
1977.443604 11907.000000
1978.749878 11903.000000
1980.055786 11899.000000
1981.360474 12013.000000
1982.664673 11941.000000
1983.967651 11879.000000
1985.270264 11835.000000
1986.571899 11830.000000
1987.872925 11655.000000
1989.172363 11407.000000
1990.471924 11405.000000
1991.770386 11438.000000
1993.068359 11309.000000
1994.364746 11375.000000
1995.661133 11267.000000
1996.956543 11207.000000
1998.251221 11109.000000
1999.545044 11266.000000
2000.837646 11062.000000
2002.129761 11037.000000
2003.421387 10897.000000
2004.712280 11029.000000
2006.001587 10892.000000
2007.290649 11023.000000
2008.578979 11045.000000
2009.866577 10951.000000
2011.153320 10934.000000
2012.438965 10892.000000
2013.724243 10846.000000
2015.008545 10805.000000
2016.292236 10809.000000
2017.574585 10565.000000
2018.856567 10773.000000
2020.138062 10776.000000
2021.418579 10770.000000
2022.698364 10634.000000
2023.977051 10566.000000
2025.255005 10679.000000
2026.532471 10643.000000
2027.809326 10683.000000
2029.084473 10840.000000
2030.359741 10956.000000
2031.634033 10863.000000
2032.907349 10862.000000
2034.179810 10831.000000
2035.451904 10884.000000
2036.722900 10831.000000
2037.993652 10815.000000
2039.263062 10837.000000
2040.531372 10806.000000
2041.799683 10764.000000
2043.067017 10713.000000
2044.333618 10726.000000
2045.598999 10782.000000
2046.863770 10844.000000
2048.128174 10613.000000
2049.391602 10607.000000
2050.654541 10693.000000
2051.915527 10503.000000
2053.177002 10453.000000
2054.437256 10333.000000
2055.696777 10347.000000
2056.955566 10230.000000
2058.213379 10238.000000
2059.470703 10282.000000
2060.727295 10286.000000
2061.982422 10222.000000
2063.237549 10271.000000
2064.491699 10148.000000
2065.745117 10163.000000
2066.997803 10073.000000
2068.249268 10187.000000
2069.500488 10170.000000
2070.750977 10092.000000
2072.000732 10137.000000
2073.249023 9966.000000
2074.497314 10017.000000
2075.744629 9881.000000
2076.991211 9788.000000
2078.237061 9749.000000
2079.481689 9744.000000
2080.725830 9621.000000
2081.969482 9742.000000
2083.212158 9679.000000
2084.453613 9550.000000
2085.694824 9589.000000
2086.935547 9462.000000
2088.175293 9656.000000
2089.413818 9443.000000
2090.651855 9344.000000
2091.889160 9494.000000
2093.126221 9323.000000
2094.361816 9483.000000
2095.596680 9402.000000
2096.831299 9448.000000
2098.064941 9548.000000
2099.297607 9239.000000
2100.529541 9286.000000
2101.760986 9184.000000
2102.991455 9252.000000
2104.221191 9176.000000
2105.450684 9087.000000
2106.678223 9151.000000
2107.906006 8924.000000
2109.133057 8928.000000
2110.359131 8895.000000
2111.583740 8907.000000
2112.808594 8902.000000
2114.032227 8832.000000
2115.255371 8767.000000
2116.477295 8847.000000
2117.698975 9110.000000
2118.919678 8889.000000
2120.139648 8852.000000
2121.359131 8998.000000
2122.577148 9009.000000
2123.795166 8939.000000
2125.012207 8967.000000
2126.228760 8993.000000
2127.443604 8887.000000
2128.658691 8989.000000
2129.872803 8738.000000
2131.086182 8951.000000
2132.298828 8627.000000
2133.510010 8882.000000
2134.721436 8911.000000
2135.931641 8584.000000
2137.141357 8739.000000
2138.349609 8817.000000
2139.557861 8700.000000
2140.765381 8730.000000
2141.971680 8544.000000
2143.177246 8738.000000
2144.382568 8614.000000
2145.586914 8773.000000
2146.790527 8647.000000
2147.993652 8696.000000
2149.195313 8612.000000
2150.396729 8575.000000
2151.597412 8382.000000
2152.797363 8477.000000
2153.996094 8520.000000
2155.194580 8475.000000
2156.392578 8526.000000
2157.589600 8343.000000
2158.785889 8266.000000
2159.980957 8232.000000
2161.175781 8166.000000
2162.369873 8125.000000
2163.562988 8114.000000
2164.755127 7975.000000
2165.947021 8157.000000
2167.138184 8061.000000
2168.328369 7898.000000
2169.517822 7907.000000
2170.706787 7805.000000
2171.894775 7762.000000
2173.082520 7715.000000
2174.268799 7641.000000
2175.454346 7641.000000
2176.639648 7686.000000
2177.824463 7581.000000
2179.008057 7533.000000
2180.190918 7471.000000
2181.372803 7545.000000
2182.554443 7620.000000
2183.735596 7447.000000
2184.915527 7590.000000
2186.094482 7522.000000
2187.272949 7386.000000
2188.451172 7448.000000
2189.628174 7386.000000
2190.804199 7396.000000
2191.979980 7493.000000
2193.155273 7432.000000
2194.329102 7415.000000
2195.502441 7584.000000
2196.675537 7473.000000
2197.847412 7465.000000
2199.018799 7531.000000
2200.189697 7490.000000
2201.358887 7477.000000
2202.528076 7414.000000
2203.696777 7561.000000
2204.864502 7478.000000
2206.031250 7536.000000
2207.197266 7334.000000
2208.362793 7337.000000
2209.528076 7359.000000
2210.691895 7261.000000
2211.855225 7325.000000
2213.017334 7180.000000
2214.179688 7227.000000
2215.340820 7177.000000
2216.500977 7142.000000
2217.660645 7055.000000
2218.820068 7219.000000
2219.978271 7190.000000
2221.135498 7142.000000
2222.292480 7083.000000
2223.448730 7083.000000
2224.604248 7010.000000
2225.759033 7000.000000
2226.912842 7008.000000
2228.065674 6957.000000
2229.218994 6898.000000
2230.370361 6995.000000
2231.521484 6929.000000
2232.671875 6807.000000
2233.821777 6811.000000
2234.970703 6785.000000
2236.119141 6775.000000
2237.266113 6766.000000
2238.413330 6634.000000
2239.559326 6690.000000
2240.705078 6711.000000
2241.849121 6530.000000
2242.993408 6461.000000
2244.136719 6408.000000
2245.279297 6460.000000
2246.420898 6506.000000
2247.562256 6333.000000
2248.702637 6394.000000
2249.842285 6196.000000
2250.981445 6248.000000
2252.119385 6173.000000
2253.257324 6314.000000
2254.394287 6192.000000
2255.530518 6143.000000
2256.665771 6115.000000
2257.800293 6042.000000
2258.934570 6272.000000
2260.068359 6364.000000
2261.200684 6385.000000
2262.332520 6179.000000
2263.463867 5991.000000
2264.594238 5936.000000
2265.724365 5909.000000
2266.853271 5945.000000
2267.981689 5874.000000
2269.109619 5938.000000
2270.236572 5903.000000
2271.362793 5765.000000
2272.488037 5958.000000
2273.613281 5905.000000
2274.737793 5963.000000
2275.861084 5905.000000
2276.983643 5935.000000
2278.105713 5899.000000
2279.227295 5811.000000
2280.348145 5734.000000
2281.467773 5893.000000
2282.586914 5867.000000
2283.705811 5637.000000
2284.823975 5606.000000
2285.941162 5637.000000
2287.057373 5693.000000
2288.173340 5710.000000
2289.288574 5762.000000
2290.403076 5652.000000
2291.516357 5827.000000
2292.629639 5842.000000
2293.742188 5759.000000
2294.854004 5872.000000
2295.965088 5756.000000
2297.074951 5825.000000
2298.184326 5817.000000
2299.293457 5847.000000
2300.401611 5733.000000
2301.508789 5764.000000
2302.615723 5822.000000
2303.721924 5670.000000
2304.827637 5643.000000
2305.931885 5743.000000
2307.035889 5727.000000
2308.139404 5781.000000
2309.242432 5584.000000
2310.344238 5570.000000
2311.445313 5550.000000
2312.545898 5586.000000
2313.645996 5573.000000
2314.745361 5589.000000
2315.843262 5588.000000
2316.941650 5473.000000
2318.038574 5459.000000
2319.135254 5575.000000
2320.231445 5551.000000
2321.325928 5480.000000
2322.420410 5489.000000
2323.514160 5229.000000
2324.607666 5345.000000
2325.699463 5370.000000
2326.791260 5152.000000
2327.882324 5338.000000
2328.972656 5306.000000
2330.062012 5354.000000
2331.151367 5232.000000
2332.239502 5307.000000
2333.327148 5253.000000
2334.414551 5179.000000
2335.500244 5160.000000
2336.585693 5075.000000
2337.670898 5115.000000
2338.755127 5046.000000
2339.838379 5083.000000
2340.921387 5032.000000
2342.003418 5007.000000
2343.085205 4923.000000
2344.166260 4923.000000
2345.246094 4982.000000
2346.325439 4964.000000
2347.404297 4842.000000
2348.482666 4974.000000
2349.559570 4901.000000
2350.636230 4829.000000
2351.712646 4689.000000
2352.788086 4809.000000
2353.862549 4847.000000
2354.936768 4717.000000
2356.010254 4709.000000
2357.083252 4689.000000
2358.155029 4589.000000
2359.226563 4746.000000
2360.297119 4542.000000
2361.367432 4498.000000
2362.436768 4658.000000
2363.505127 4611.000000
2364.573242 4585.000000
2365.640625 4552.000000
2366.707520 4472.000000
2367.773682 4651.000000
2368.838623 4573.000000
2369.903564 4511.000000
2370.967773 4420.000000
2372.031250 4453.000000
2373.093506 4459.000000
2374.155762 4514.000000
2375.217041 4441.000000
2376.278076 4368.000000
2377.337891 4425.000000
2378.396973 4454.000000
2379.456055 4415.000000
2380.514160 4498.000000
2381.571533 4493.000000
2382.627930 4342.000000
2383.684082 4387.000000
2384.739746 4382.000000
2385.794678 4268.000000
2386.848145 4255.000000
2387.901855 4220.000000
2388.954590 4330.000000
2390.006836 4344.000000
2391.058350 4411.000000
2392.108887 4390.000000
2393.159180 4360.000000
2394.208496 4280.000000
2395.257813 4335.000000
2396.305664 4171.000000
2397.353027 4248.000000
2398.400146 4280.000000
2399.446289 4224.000000
2400.491699 4382.000000
2401.536377 4131.000000
2402.581055 4180.000000
2403.624268 4261.000000
2404.667480 4263.000000
2405.709229 4181.000000
2406.751221 4187.000000
2407.792480 4280.000000
2408.832764 4131.000000
2409.872314 4202.000000
2410.910889 4162.000000
2411.949707 4187.000000
2412.987305 4259.000000
2414.024658 4142.000000
2415.060791 4087.000000
2416.096680 4179.000000
2417.131836 4175.000000
2418.166504 4105.000000
2419.199707 4159.000000
2420.233154 4163.000000
2421.265625 4158.000000
2422.297852 4102.000000
2423.328613 4039.000000
2424.359375 4002.000000
2425.389648 3886.000000
2426.418701 3991.000000
2427.447754 3903.000000
2428.475098 3938.000000
2429.502930 3908.000000
2430.529541 3956.000000
2431.555908 3943.000000
2432.580811 3873.000000
2433.605957 3908.000000
2434.630127 3820.000000
2435.654053 3885.000000
2436.676758 3870.000000
2437.698730 3847.000000
2438.720459 3764.000000
2439.741455 3816.000000
2440.761963 3798.000000
2441.781250 3705.000000
2442.800537 3623.000000
2443.818848 3609.000000
2444.836914 3596.000000
2445.853516 3648.000000
2446.870117 3691.000000
2447.885986 3702.000000
2448.901855 3491.000000
2449.916260 3555.000000
2450.929932 3532.000000
2451.943115 3566.000000
2452.956055 3580.000000
2453.968262 3430.000000
2454.979492 3542.000000
2455.990479 3412.000000
2457.000732 3595.000000
2458.010498 3567.000000
2459.019287 3592.000000
2460.027344 3543.000000
2461.035400 3428.000000
2462.042236 3414.000000
2463.048828 3466.000000
2464.054199 3380.000000
2465.059326 3398.000000
2466.064209 3392.000000
2467.067871 3337.000000
2468.071289 3365.000000
2469.073730 3337.000000
2470.075928 3439.000000
2471.077637 3397.000000
2472.078369 3318.000000
2473.078125 3293.000000
2474.077881 3290.000000
2475.076660 3253.000000
2476.074951 3295.000000
2477.072266 3420.000000
2478.069336 3365.000000
2479.066406 3395.000000
2480.062012 3342.000000
2481.057617 3241.000000
2482.051514 3320.000000
2483.045410 3299.000000
2484.038818 3243.000000
2485.031738 3359.000000
2486.023682 3301.000000
2487.014893 3425.000000
2488.005859 3287.000000
2488.996338 3237.000000
2489.985840 3319.000000
2490.974609 3227.000000
2491.963379 3270.000000
2492.951172 3286.000000
2493.937744 3354.000000
2494.924316 3343.000000
2495.910400 3291.000000
2496.895752 3240.000000
2497.880127 3192.000000
2498.864258 3285.000000
2499.848389 3225.000000
2500.831055 3217.000000
2501.813232 3231.000000
2502.794922 3152.000000
2503.775879 3126.000000
2504.756348 3255.000000
2505.736572 3169.000000
2506.715332 3182.000000
2507.693848 3200.000000
2508.671875 3100.000000
2509.649414 3109.000000
2510.625977 3065.000000
2511.602295 3079.000000
2512.577881 3108.000000
2513.552979 3092.000000
2514.527588 3098.000000
2515.500977 3093.000000
2516.474121 3034.000000
2517.447021 3048.000000
2518.418945 3003.000000
2519.390137 2923.000000
2520.360840 3013.000000
2521.331299 2959.000000
2522.301025 2917.000000
2523.269775 2890.000000
2524.237793 2954.000000
2525.205811 2938.000000
2526.172852 2835.000000
2527.139648 2970.000000
2528.105225 2864.000000
2529.070801 2912.000000
2530.035645 2787.000000
2531.000000 2906.000000
2531.963135 2812.000000
2532.926514 2949.000000
2533.888916 2837.000000
2534.851074 2841.000000
2535.812012 2760.000000
2536.772217 2783.000000
2537.732666 2745.000000
2538.692139 2886.000000
2539.650879 2942.000000
2540.608643 2853.000000
2541.566650 2766.000000
2542.523926 2677.000000
2543.480225 2696.000000
2544.436279 2705.000000
2545.391113 2690.000000
2546.346191 2775.000000
2547.300537 2709.000000
2548.254150 2300.000000
2549.206787 2699.000000
2550.159180 2616.000000
2551.111084 2706.000000
2552.062256 2693.000000
2553.012695 2576.000000
2553.962646 2629.000000
2554.912354 2625.000000
2555.861328 2572.000000
2556.809814 2686.000000
2557.757080 2612.000000
2558.704346 2651.000000
2559.650879 2638.000000
2560.596924 2559.000000
2561.541992 2512.000000
2562.486816 2696.000000
2563.431152 2521.000000
2564.375000 2499.000000
2565.318359 2522.000000
2566.260254 2488.000000
2567.202393 2501.000000
2568.143799 2453.000000
2569.084473 2442.000000
2570.024414 2444.000000
2570.964355 2512.000000
2571.903320 2390.000000
2572.842041 2405.000000
2573.779785 2472.000000
2574.717285 2440.000000
2575.654053 2480.000000
2576.590088 2388.000000
2577.525635 2501.000000
2578.460449 2549.000000
2579.395264 2576.000000
2580.329102 2401.000000
2581.262451 2465.000000
2582.195068 2541.000000
2583.127441 2347.000000
2584.059082 2384.000000
2584.990234 2431.000000
2585.920898 2395.000000
2586.850342 2507.000000
2587.779785 2482.000000
2588.708740 2443.000000
2589.637451 2331.000000
2590.564453 2417.000000
2591.491699 2350.000000
2592.418457 2277.000000
2593.344482 2399.000000
2594.270264 2362.000000
2595.194824 2355.000000
2596.119141 2376.000000
2597.042969 2354.000000
2597.966309 2335.000000
2598.888672 2412.000000
2599.810791 2266.000000
2600.732422 2468.000000
2601.653320 2411.000000
2602.573486 2326.000000
2603.493408 2307.000000
2604.412842 2340.000000
2605.332031 2379.000000
2606.250244 2230.000000
2607.167236 2404.000000
2608.084473 2374.000000
2609.001465 2331.000000
2609.917480 2243.000000
2610.832275 2280.000000
2611.747559 2296.000000
2612.662109 2276.000000
2613.575684 2249.000000
2614.489258 2190.000000
2615.401611 2293.000000
2616.313965 2168.000000
2617.225342 2232.000000
2618.136475 2194.000000
2619.046875 2188.000000
2619.957031 2162.000000
2620.866455 2133.000000
2621.775391 2284.000000
2622.683350 2020.000000
2623.591553 2127.000000
2624.498779 2213.000000
2625.405518 2114.000000
2626.311523 2160.000000
2627.217285 2119.000000
2628.122314 2077.000000
2629.027100 2054.000000
2629.931152 1979.000000
2630.834229 2181.000000
2631.737305 2031.000000
2632.639404 2054.000000
2633.541504 2013.000000
2634.443359 2039.000000
2635.343506 2106.000000
2636.243896 2062.000000
2637.143555 2017.000000
2638.042969 1981.000000
2638.940918 1926.000000
2639.839355 1941.000000
2640.737305 2039.000000
2641.634521 1950.000000
2642.530518 2073.000000
2643.426514 1924.000000
2644.322266 2046.000000
2645.217285 1929.000000
2646.112061 1893.000000
2647.005371 1941.000000
2647.898682 1923.000000
2648.791748 1933.000000
2649.684570 1938.000000
2650.575684 1926.000000
2651.467041 1877.000000
2652.357910 1821.000000
2653.248047 1891.000000
2654.137939 1868.000000
2655.026611 1857.000000
2655.915527 1890.000000
2656.803955 1901.000000
2657.691406 1753.000000
2658.577881 1788.000000
2659.464844 1770.000000
2660.351074 1892.000000
2661.236816 1838.000000
2662.121338 1813.000000
2663.005859 1791.000000
2663.890137 1832.000000
2664.773682 1816.000000
2665.656738 1873.000000
2666.539063 1766.000000
2667.420898 1949.000000
2668.302002 1788.000000
2669.183350 1975.000000
2670.063232 1818.000000
2670.943359 1813.000000
2671.822754 1925.000000
2672.702148 1952.000000
2673.580811 1874.000000
2674.457764 1860.000000
2675.335449 1835.000000
2676.212402 1854.000000
2677.088623 1789.000000
2677.964355 1829.000000
2678.839355 1739.000000
2679.714600 1878.000000
2680.588867 1779.000000
2681.462646 1711.000000
2682.335693 1754.000000
2683.208496 1699.000000
2684.081055 1720.000000
2684.952881 1687.000000
2685.823975 1797.000000
2686.694824 1692.000000
2687.565186 1742.000000
2688.435303 1751.000000
2689.303711 1783.000000
2690.172852 1778.000000
2691.041260 1668.000000
2691.909424 1721.000000
2692.776855 1747.000000
2693.643066 1689.000000
2694.509766 1713.000000
2695.375488 1723.000000
2696.241211 1641.000000
2697.105469 1690.000000
2697.970459 1653.000000
2698.833984 1758.000000
2699.697754 1575.000000
2700.560059 1646.000000
2701.422852 1620.000000
2702.284668 1626.000000
2703.145996 1585.000000
2704.007324 1570.000000
2704.867432 1651.000000
2705.727539 1703.000000
2706.587158 1595.000000
2707.446533 1662.000000
2708.304199 1653.000000
2709.162109 1673.000000
2710.020508 1605.000000
2710.877686 1606.000000
2711.734131 1563.000000
2712.590088 1581.000000
2713.446045 1599.000000
2714.301270 1526.000000
2715.155762 1544.000000
2716.009766 1682.000000
2716.863770 1547.000000
2717.716797 1581.000000
2718.570068 1544.000000
2719.421631 1552.000000
2720.273682 1489.000000
2721.125488 1567.000000
2721.976074 1478.000000
2722.826660 1693.000000
2723.676758 1519.000000
2724.526123 1525.000000
2725.375488 1517.000000
2726.223633 1580.000000
2727.071289 1474.000000
2727.919434 1506.000000
2728.766357 1486.000000
2729.613770 1523.000000
2730.459717 1527.000000
2731.304932 1511.000000
2732.150635 1525.000000
2732.995361 1508.000000
2733.840088 1390.000000
2734.683594 1490.000000
2735.527344 1490.000000
2736.370361 1450.000000
2737.212891 1540.000000
2738.054443 1415.000000
2738.896484 1427.000000
2739.737549 1404.000000
2740.578369 1533.000000
2741.418945 1548.000000
2742.258301 1431.000000
2743.097656 1437.000000
2743.937012 1411.000000
2744.775146 1470.000000
2745.612793 1416.000000
2746.450439 1398.000000
2747.287598 1446.000000
2748.124512 1390.000000
2748.960938 1420.000000
2749.796143 1460.000000
2750.631592 1505.000000
2751.466553 1395.000000
2752.300781 1489.000000
2753.134766 1508.000000
2753.968262 1395.000000
2754.801758 1411.000000
2755.634277 1446.000000
2756.466309 1463.000000
2757.297852 1405.000000
2758.129395 1414.000000
2758.959961 1394.000000
2759.790771 1360.000000
2760.620361 1410.000000
2761.449951 1413.000000
2762.279297 1312.000000
2763.107910 1365.000000
2763.936035 1364.000000
2764.763672 1275.000000
2765.591309 1341.000000
2766.418457 1348.000000
2767.244873 1405.000000
2768.070801 1245.000000
2768.896240 1326.000000
2769.721436 1217.000000
2770.546631 1327.000000
2771.370605 1395.000000
2772.194580 1238.000000
2773.018555 1292.000000
2773.841309 1327.000000
2774.664307 1317.000000
2775.486084 1249.000000
2776.307861 1317.000000
2777.129639 1312.000000
2777.950439 1126.000000
2778.770508 1227.000000
2779.590820 1358.000000
2780.410645 1218.000000
2781.230469 1225.000000
2782.048340 1155.000000
2782.867432 1206.000000
2783.685303 1368.000000
2784.502930 1279.000000
2785.320068 1249.000000
2786.136719 1185.000000
2786.953125 1175.000000
2787.769043 1120.000000
2788.584717 1186.000000
2789.399414 1105.000000
2790.214600 1189.000000
2791.029053 1083.000000
2791.843018 1204.000000
2792.656738 1155.000000
2793.469238 1177.000000
2794.281982 1213.000000
2795.094238 1066.000000
2795.906006 1068.000000
2796.717041 1138.000000
2797.528809 1170.000000
2798.339355 1174.000000
2799.149902 1163.000000
2799.958984 1116.000000
2800.768799 1132.000000
2801.577881 1132.000000
2802.386719 1197.000000
2803.195068 1242.000000
2804.002441 1204.000000
2804.810303 1120.000000
2805.617432 1177.000000
2806.424316 1107.000000
2807.229980 1149.000000
2808.036133 1253.000000
2808.841553 1171.000000
2809.646973 1114.000000
2810.451660 1202.000000
2811.255371 1234.000000
2812.059570 1126.000000
2812.863281 1067.000000
2813.666748 1129.000000
2814.468750 1139.000000
2815.271484 1153.000000
2816.073486 1181.000000
2816.875244 1123.000000
2817.676514 1113.000000
2818.477295 1085.000000
2819.277588 1134.000000
2820.078125 1115.000000
2820.877686 1015.000000
2821.676758 1050.000000
2822.475830 1174.000000
2823.274658 1115.000000
2824.072998 1134.000000
2824.870361 994.000000
2825.667969 1232.000000
2826.464844 1163.000000
2827.261963 1057.000000
2828.058350 1051.000000
2828.854004 1176.000000
2829.649658 1037.000000
2830.445068 1151.000000
2831.239990 1038.000000
2832.034180 1095.000000
2832.828369 1180.000000
2833.622314 1041.000000
2834.415771 1050.000000
2835.208496 1077.000000
2836.000977 1074.000000
2836.793457 1039.000000
2837.585693 1158.000000
2838.377441 1081.000000
2839.168213 1087.000000
2839.958984 1107.000000
2840.750000 1146.000000
2841.540039 1049.000000
2842.329590 1033.000000
2843.119385 1153.000000
2843.908203 1201.000000
2844.697021 1029.000000
2845.485840 1155.000000
2846.273682 1022.000000
2847.061035 1122.000000
2847.848633 1106.000000
2848.635742 994.000000
2849.422119 1085.000000
2850.208496 1147.000000
2850.994629 1040.000000
2851.780273 940.000000
2852.564941 1063.000000
2853.350098 1007.000000
2854.135010 1034.000000
2854.919189 1060.000000
2855.703369 1055.000000
2856.486328 1077.000000
2857.269531 1058.000000
2858.052490 1140.000000
2858.834961 1048.000000
2859.617188 1093.000000
2860.398926 898.000000
2861.180420 1039.000000
2861.962158 1096.000000
2862.743164 1009.000000
2863.523438 1058.000000
2864.303467 1101.000000
2865.083496 966.000000
2865.863281 1056.000000
2866.642090 1117.000000
2867.421143 1116.000000
2868.199707 1154.000000
2868.978027 1176.000000
2869.755859 1049.000000
2870.533447 1154.000000
2871.310791 1180.000000
2872.087891 1280.000000
2872.864502 1231.000000
2873.640625 1102.000000
2874.416748 1204.000000
2875.192383 1284.000000
2875.967773 1209.000000
2876.742676 1298.000000
2877.517334 1280.000000
2878.291992 1239.000000
2879.066406 1291.000000
2879.840088 1278.000000
2880.613037 1232.000000
2881.386719 1291.000000
2882.159424 1351.000000
2882.932129 1306.000000
2883.704102 1348.000000
2884.475830 1365.000000
2885.248047 1302.000000
2886.019043 1355.000000
2886.789551 1283.000000
2887.560547 1324.000000
2888.331543 1175.000000
2889.101807 1232.000000
2889.871094 1274.000000
2890.640625 1193.000000
2891.410156 1184.000000
2892.179199 1219.000000
2892.947754 1229.000000
2893.716309 1332.000000
2894.483887 1255.000000
2895.251953 1196.000000
2896.019531 1286.000000
2896.787109 1217.000000
2897.553467 1239.000000
2898.320801 1137.000000
2899.086914 1199.000000
2899.853271 1151.000000
2900.618164 1226.000000
2901.383545 1146.000000
2902.149414 1197.000000
2902.913818 1382.000000
2903.678223 1169.000000
2904.442871 1143.000000
2905.206543 1167.000000
2905.970947 1106.000000
2906.734619 1151.000000
2907.497559 1106.000000
2908.260254 1134.000000
2909.023438 1075.000000
2909.786133 1085.000000
2910.547607 1222.000000
2911.309570 1222.000000
spectrumdark 2048
-96.921303 6246.000000
-94.294434 6246.000000
-91.669441 6096.000000
-89.046341 6451.000000
-86.425110 5789.000000
-83.805779 6301.000000
-81.188309 6136.000000
-78.572716 6496.000000
-75.959000 6310.000000
-73.347160 5915.000000
-70.737183 6079.000000
-68.129089 6016.000000
-65.522842 6068.000000
-62.918472 6017.000000
-60.315964 6178.000000
-57.715309 5630.000000
-55.116516 6220.000000
-52.519581 6828.000000
-49.924500 6499.000000
-47.331272 6616.000000
-44.739895 6316.000000
-42.150364 6733.000000
-39.562675 5941.000000
-36.976837 6090.000000
-34.392841 6476.000000
-31.810682 5744.000000
-29.230370 6367.000000
-26.651884 5735.000000
-24.075241 6092.000000
-21.500423 6269.000000
-18.927446 6561.000000
-16.356289 6507.000000
-13.786965 6694.000000
-11.219467 7816.000000
-8.653788 6339.000000
-6.089933 6446.000000
-3.527893 6031.000000
-0.967677 5928.000000
1.590731 6204.000000
4.147318 6930.000000
6.702100 6653.000000
9.255065 6031.000000
11.806230 6745.000000
14.355581 6509.000000
16.903137 6756.000000
19.448881 6018.000000
21.992832 5771.000000
24.534979 6710.000000
27.075329 6839.000000
29.613894 6936.000000
32.150661 6269.000000
34.685627 5835.000000
37.218815 7264.000000
39.750221 6382.000000
42.279835 7149.000000
44.807652 6566.000000
47.333710 7858.000000
49.857979 5732.000000
52.380478 6285.000000
54.901180 6766.000000
57.420128 6285.000000
59.937302 6453.000000
62.452698 6665.000000
64.966316 5674.000000
67.478180 5764.000000
69.988297 6543.000000
72.496620 6534.000000
75.003189 5950.000000
77.508011 6381.000000
80.011078 6409.000000
82.512367 6367.000000
85.011917 6109.000000
87.509712 6404.000000
90.005775 5747.000000
92.500061 7230.000000
94.992607 5774.000000
97.483437 7015.000000
99.972496 7233.000000
102.459808 6383.000000
104.945396 6237.000000
107.429245 6456.000000
109.911346 5802.000000
112.391724 6550.000000
114.870377 6278.000000
117.347305 6511.000000
119.822479 7220.000000
122.295944 6864.000000
124.767677 5905.000000
127.237701 6781.000000
129.705978 6303.000000
132.172577 6289.000000
134.637421 5744.000000
137.100571 6278.000000
139.561981 7255.000000
142.021698 6934.000000
144.479691 6386.000000
146.935989 6009.000000
149.390579 5853.000000
151.843445 6874.000000
154.294632 6404.000000
156.744125 6696.000000
159.191895 6150.000000
161.637955 6606.000000
164.082336 8724.000000
166.525040 6380.000000
168.966049 6709.000000
171.405350 6253.000000
173.842941 7213.000000
176.278900 6624.000000
178.713120 6953.000000
181.145660 7202.000000
183.576553 6747.000000
186.005722 6811.000000
188.433243 6740.000000
190.859085 6363.000000
193.283249 6705.000000
195.705750 7115.000000
198.126556 7430.000000
200.545700 6609.000000
202.963181 6082.000000
205.378967 7651.000000
207.793106 7127.000000
210.205612 6376.000000
212.616440 6130.000000
215.025589 6296.000000
217.433105 7487.000000
219.838913 6163.000000
222.243134 6569.000000
224.645645 6696.000000
227.046539 6940.000000
229.445786 6487.000000
231.843369 6814.000000
234.239288 7290.000000
236.633591 6528.000000
239.026230 5932.000000
241.417252 6835.000000
243.806610 6508.000000
246.194351 6356.000000
248.580444 7016.000000
250.964905 6104.000000
253.347717 7926.000000
255.728958 6656.000000
258.108490 6717.000000
260.486450 6596.000000
262.862732 7573.000000
265.237457 7581.000000
267.610535 7892.000000
269.981964 6262.000000
272.351746 6444.000000
274.719971 5875.000000
277.086548 6350.000000
279.451538 6756.000000
281.814911 6081.000000
284.176636 6329.000000
286.536774 7155.000000
288.895294 6101.000000
291.252228 6556.000000
293.607544 6394.000000
295.961273 6046.000000
298.313354 5963.000000
300.663879 6390.000000
303.012817 6465.000000
305.360107 6872.000000
307.705872 6401.000000
310.049957 6510.000000
312.392517 7401.000000
314.733459 7642.000000
317.072784 7288.000000
319.410553 7062.000000
321.746765 8072.000000
324.081329 6314.000000
326.414337 6541.000000
328.745789 6041.000000
331.075653 6609.000000
333.403931 6417.000000
335.730591 7292.000000
338.055756 6366.000000
340.379303 6287.000000
342.701294 6038.000000
345.021729 7506.000000
347.340546 7773.000000
349.657806 6021.000000
351.973541 5859.000000
354.287689 6960.000000
356.600250 6361.000000
358.911255 6486.000000
361.220734 7094.000000
363.528687 6386.000000
365.835022 5700.000000
368.139771 6371.000000
370.443054 6480.000000
372.744720 6333.000000
375.044891 6396.000000
377.343506 6361.000000
379.640564 5762.000000
381.936066 6137.000000
384.230042 5835.000000
386.522430 5244.000000
388.813324 5635.000000
391.102692 6165.000000
393.390472 6291.000000
395.676727 6498.000000
397.961487 7013.000000
400.244629 6046.000000
402.526337 6399.000000
404.806519 6135.000000
407.085114 7292.000000
409.362183 6439.000000
411.637726 6716.000000
413.911743 6402.000000
416.184326 6398.000000
418.455292 6477.000000
420.724762 6431.000000
422.992737 7117.000000
425.259155 7257.000000
427.524078 6316.000000
429.787537 6371.000000
432.049408 6534.000000
434.309814 6010.000000
436.568665 6682.000000
438.826050 6236.000000
441.081940 5658.000000
443.336334 5789.000000
445.589203 5520.000000
447.840515 6908.000000
450.090424 6169.000000
452.338745 6361.000000
454.585632 5674.000000
456.831055 6572.000000
459.074921 6517.000000
461.317291 6766.000000
463.558167 5719.000000
465.797638 6773.000000
468.035522 5513.000000
470.271973 5818.000000
472.506897 6116.000000
474.740356 7347.000000
476.972382 6750.000000
479.202881 5654.000000
481.431885 6509.000000
483.659424 6361.000000
485.885468 5950.000000
488.110077 6644.000000
490.333221 5864.000000
492.554901 6435.000000
494.775024 6703.000000
496.993744 5685.000000
499.210968 6309.000000
501.426819 5576.000000
503.641052 6166.000000
505.853973 6503.000000
508.065308 6498.000000
510.275208 6923.000000
512.483643 6472.000000
514.690735 6580.000000
516.896240 6454.000000
519.100342 6612.000000
521.302917 6230.000000
523.504089 6624.000000
525.703918 6621.000000
527.902222 6973.000000
530.098999 5332.000000
532.294434 5892.000000
534.488342 5604.000000
536.680908 7594.000000
538.871948 6782.000000
541.061584 6057.000000
543.249817 6929.000000
545.436523 7205.000000
547.621765 6809.000000
549.805725 6249.000000
551.988098 6491.000000
554.169128 6179.000000
556.348633 6130.000000
558.526855 5926.000000
560.703552 6107.000000
562.878845 6391.000000
565.052734 6438.000000
567.225159 5972.000000
569.396179 5984.000000
571.565735 6287.000000
573.734009 5311.000000
575.900757 6477.000000
578.066040 6272.000000
580.229919 6129.000000
582.392517 5763.000000
584.553589 6119.000000
586.713257 5654.000000
588.871582 5780.000000
591.028381 6206.000000
593.183838 6679.000000
595.337891 5806.000000
597.490601 6180.000000
599.641785 7353.000000
601.791626 6808.000000
603.940125 6714.000000
606.087036 6065.000000
608.232727 6568.000000
610.377014 6451.000000
612.519836 6700.000000
614.661194 6248.000000
616.801331 6515.000000
618.939941 7733.000000
621.077271 5763.000000
623.213135 6572.000000
625.347595 6953.000000
627.480591 7175.000000
629.612427 6638.000000
631.742798 6642.000000
633.871765 6841.000000
635.999268 6446.000000
638.125488 6158.000000
640.250183 7340.000000
642.373657 6373.000000
644.495789 6843.000000
646.616455 6816.000000
648.735779 6608.000000
650.853699 5688.000000
652.970276 5738.000000
655.085449 6451.000000
657.199280 6477.000000
659.311646 5840.000000
661.422791 6204.000000
663.532532 5397.000000
665.640808 6675.000000
667.747925 6275.000000
669.853577 6797.000000
671.957764 5913.000000
674.060730 5703.000000
676.162292 7078.000000
678.262512 5363.000000
680.361328 6763.000000
682.458801 6379.000000
684.554993 7018.000000
686.649719 6221.000000
688.743225 6994.000000
690.835388 6671.000000
692.926025 7950.000000
695.015442 6648.000000
697.103577 6555.000000
699.190247 6021.000000
701.275696 6743.000000
703.359619 5344.000000
705.442322 5932.000000
707.523743 5987.000000
709.603699 7598.000000
711.682434 6391.000000
713.759705 5620.000000
715.835693 6604.000000
717.910400 6107.000000
719.983826 7092.000000
722.055725 6298.000000
724.126465 7365.000000
726.195862 5808.000000
728.263855 6503.000000
730.330505 6413.000000
732.395935 7088.000000
734.460022 5787.000000
736.522766 6244.000000
738.584167 6566.000000
740.644287 6682.000000
742.703003 6064.000000
744.760498 6655.000000
746.816711 6481.000000
748.871521 6752.000000
750.925049 6457.000000
752.977173 7477.000000
755.028076 5827.000000
757.077759 6714.000000
759.125977 6337.000000
761.172974 6194.000000
763.218689 7150.000000
765.263000 5390.000000
767.306030 5785.000000
769.347839 6367.000000
771.388306 6949.000000
773.427368 6424.000000
775.465271 6100.000000
777.501831 6050.000000
779.537170 5380.000000
781.571167 5830.000000
783.603760 6957.000000
785.635193 5568.000000
787.665222 11565.000000
789.693970 6036.000000
791.721558 6393.000000
793.747803 6402.000000
795.772644 5876.000000
797.796387 5571.000000
799.818726 6357.000000
801.839844 5898.000000
803.859619 6689.000000
805.878113 4929.000000
807.895386 6591.000000
809.911255 6827.000000
811.925964 5804.000000
813.939331 6458.000000
815.951477 6234.000000
817.962402 6118.000000
819.971985 6627.000000
821.980347 5348.000000
823.987305 5733.000000
825.993042 6116.000000
827.997559 5789.000000
830.000793 5634.000000
832.002747 6541.000000
834.003418 6083.000000
836.002869 5961.000000
838.000977 6363.000000
839.997986 7004.000000
841.993591 6255.000000
843.988037 5874.000000
845.981140 6203.000000
847.973022 6943.000000
849.963562 5652.000000
851.952820 6806.000000
853.941040 6001.000000
855.927856 5762.000000
857.913452 6450.000000
859.897766 7361.000000
861.880981 6357.000000
863.862793 6427.000000
865.843384 5856.000000
867.822693 7720.000000
869.800842 7091.000000
871.777649 6175.000000
873.753174 6122.000000
875.727661 6216.000000
877.700684 6065.000000
879.672668 5527.000000
881.643311 6414.000000
883.612793 6169.000000
885.580933 5613.000000
887.547913 5218.000000
889.513550 6146.000000
891.478027 5861.000000
893.441284 6067.000000
895.403320 6530.000000
897.364075 5905.000000
899.323608 6424.000000
901.281860 6755.000000
903.239014 6395.000000
905.195007 6053.000000
907.149597 6938.000000
909.102966 6549.000000
911.055176 6523.000000
913.006165 6374.000000
914.955872 7134.000000
916.904419 6296.000000
918.851746 6182.000000
920.797791 6086.000000
922.742554 6093.000000
924.686279 6313.000000
926.628845 6060.000000
928.570129 5589.000000
930.510071 6528.000000
932.448914 5734.000000
934.386475 5503.000000
936.322815 6001.000000
938.257996 5827.000000
940.191895 6149.000000
942.124695 5973.000000
944.056274 6758.000000
945.986694 5243.000000
947.915894 6442.000000
949.843750 7030.000000
951.770569 6707.000000
953.696106 5960.000000
955.620361 5391.000000
957.543518 6081.000000
959.465515 6780.000000
961.386230 7350.000000
963.305786 6520.000000
965.224182 5383.000000
967.141541 6447.000000
969.057434 6481.000000
970.972229 6149.000000
972.885803 6009.000000
974.798218 6386.000000
976.709412 6459.000000
978.619446 5518.000000
980.528198 6279.000000
982.435913 6203.000000
984.342407 6436.000000
986.247681 5727.000000
988.151855 6793.000000
990.054810 6310.000000
991.956543 6814.000000
993.857117 6605.000000
995.756531 6655.000000
997.654724 5291.000000
999.551758 6521.000000
1001.447571 6548.000000
1003.342224 7707.000000
1005.235779 5619.000000
1007.128052 7175.000000
1009.019409 6114.000000
1010.909424 5360.000000
1012.798218 6651.000000
1014.685852 6394.000000
1016.572327 6922.000000
1018.457642 6789.000000
1020.341797 6040.000000
1022.224731 5923.000000
1024.106689 6269.000000
1025.987305 5249.000000
1027.866821 5903.000000
1029.745361 6093.000000
1031.622559 5466.000000
1033.498413 6195.000000
1035.373291 5883.000000
1037.247192 6651.000000
1039.119629 7002.000000
1040.991089 6773.000000
1042.861206 5531.000000
1044.730347 5542.000000
1046.598267 5767.000000
1048.465088 7040.000000
1050.330811 6774.000000
1052.195313 6467.000000
1054.058716 6496.000000
1055.920776 6463.000000
1057.781860 5872.000000
1059.641846 6548.000000
1061.500488 6710.000000
1063.358032 5821.000000
1065.214478 6770.000000
1067.069824 5901.000000
1068.923950 5881.000000
1070.777222 6304.000000
1072.629028 6455.000000
1074.479858 6245.000000
1076.329468 6170.000000
1078.177856 5842.000000
1080.025391 8049.000000
1081.871582 5618.000000
1083.716553 6242.000000
1085.560669 5468.000000
1087.403442 5544.000000
1089.244995 6522.000000
1091.085815 5481.000000
1092.925049 5836.000000
1094.763550 6149.000000
1096.600708 6012.000000
1098.436646 6908.000000
1100.271606 6630.000000
1102.105347 5468.000000
1103.938110 5679.000000
1105.769531 6189.000000
1107.600098 7349.000000
1109.429321 6593.000000
1111.257568 6464.000000
1113.084595 7183.000000
1114.910645 5447.000000
1116.735474 6403.000000
1118.559204 7143.000000
1120.381714 6173.000000
1122.203125 5954.000000
1124.023682 5942.000000
1125.842773 6587.000000
1127.661011 7135.000000
1129.477905 6887.000000
1131.293945 6692.000000
1133.108765 6520.000000
1134.922485 5710.000000
1136.735107 5758.000000
1138.546509 5659.000000
1140.356934 6220.000000
1142.166260 6845.000000
1143.974243 7016.000000
1145.781494 5953.000000
1147.587280 5962.000000
1149.392212 5444.000000
1151.196045 5407.000000
1152.998657 6160.000000
1154.800415 6146.000000
1156.600708 6092.000000
1158.400024 6120.000000
1160.198364 5942.000000
1161.995361 5448.000000
1163.791626 5968.000000
1165.586548 6128.000000
1167.380371 6381.000000
1169.173340 7753.000000
1170.964966 5740.000000
1172.755615 6541.000000
1174.545288 6041.000000
1176.333496 5863.000000
1178.120850 7474.000000
1179.907104 6864.000000
1181.692261 5834.000000
1183.476318 5990.000000
1185.259277 7783.000000
1187.041260 5916.000000
1188.822021 5901.000000
1190.601807 6293.000000
1192.380493 6957.000000
1194.158203 6702.000000
1195.934692 7141.000000
1197.710083 6634.000000
1199.484375 6523.000000
1201.257568 6798.000000
1203.029907 6573.000000
1204.800903 6754.000000
1206.571045 5721.000000
1208.339966 6210.000000
1210.107788 6345.000000
1211.874756 5851.000000
1213.640381 5920.000000
1215.405029 6974.000000
1217.168579 6553.000000
1218.931030 6030.000000
1220.692627 6814.000000
1222.453003 5944.000000
1224.212280 6333.000000
1225.970703 6035.000000
1227.727905 7153.000000
1229.484009 6477.000000
1231.239014 5588.000000
1232.993164 6035.000000
1234.745972 5835.000000
1236.497803 6054.000000
1238.248779 5998.000000
1239.998413 4965.000000
1241.747192 7059.000000
1243.494629 6462.000000
1245.241333 6648.000000
1246.986816 6513.000000
1248.731445 6503.000000
1250.474731 6818.000000
1252.217041 6692.000000
1253.958252 5369.000000
1255.698608 5086.000000
1257.437866 5863.000000
1259.175903 6628.000000
1260.913086 7160.000000
1262.649048 6202.000000
1264.384033 6509.000000
1266.118042 7291.000000
1267.851074 5944.000000
1269.582886 6241.000000
1271.313721 6445.000000
1273.043335 7270.000000
1274.772095 5958.000000
1276.499756 5657.000000
1278.226318 5558.000000
1279.952026 5571.000000
1281.676392 6504.000000
1283.399902 5232.000000
1285.122437 6935.000000
1286.843994 6629.000000
1288.564331 6191.000000
1290.283691 6665.000000
1292.001953 7233.000000
1293.719238 6498.000000
1295.435547 5750.000000
1297.150635 6459.000000
1298.864746 6211.000000
1300.577881 5818.000000
1302.290161 6516.000000
1304.001221 8300.000000
1305.711304 5299.000000
1307.420288 6354.000000
1309.128052 6688.000000
1310.835205 7024.000000
1312.540894 5884.000000
1314.245850 6942.000000
1315.949829 6229.000000
1317.652588 6009.000000
1319.354370 6600.000000
1321.055298 6104.000000
1322.754883 9873.000000
1324.453613 7760.000000
1326.151611 18946.000000
1327.848267 6601.000000
1329.543823 7205.000000
1331.238525 6935.000000
1332.932007 5799.000000
1334.624634 5427.000000
1336.316406 7430.000000
1338.006836 6330.000000
1339.696533 6619.000000
1341.385132 6146.000000
1343.072632 7699.000000
1344.759155 5656.000000
1346.444580 6789.000000
1348.129028 5975.000000
1349.812622 7217.000000
1351.494995 6442.000000
1353.176392 5976.000000
1354.856934 6646.000000
1356.536255 6759.000000
1358.214966 5986.000000
1359.892334 6476.000000
1361.568604 5776.000000
1363.243896 5625.000000
1364.918457 6630.000000
1366.591797 6468.000000
1368.264160 6813.000000
1369.935547 5212.000000
1371.605957 6830.000000
1373.275269 6189.000000
1374.943604 5656.000000
1376.611084 6014.000000
1378.277466 6472.000000
1379.942871 6245.000000
1381.607300 5918.000000
1383.270508 5949.000000
1384.933105 5721.000000
1386.594360 6433.000000
1388.254761 6563.000000
1389.914063 6401.000000
1391.572388 6567.000000
1393.229980 6846.000000
1394.886353 6498.000000
1396.541870 7034.000000
1398.196167 6370.000000
1399.849609 5859.000000
1401.501953 6097.000000
1403.153564 6481.000000
1404.803955 7145.000000
1406.453247 6292.000000
1408.101807 7482.000000
1409.749268 7859.000000
1411.395752 6195.000000
1413.041382 6271.000000
1414.686035 6013.000000
1416.329468 7056.000000
1417.972046 7114.000000
1419.613525 6934.000000
1421.254150 6502.000000
1422.893799 6503.000000
1424.532349 6024.000000
1426.170044 6688.000000
1427.806641 6333.000000
1429.442261 5988.000000
1431.077148 6390.000000
1432.710938 5893.000000
1434.343628 6213.000000
1435.975342 5755.000000
1437.606201 6196.000000
1439.235962 6124.000000
1440.864624 7795.000000
1442.492676 6070.000000
1444.119629 6254.000000
1445.745361 6221.000000
1447.370483 6173.000000
1448.994507 6515.000000
1450.617554 6105.000000
1452.239624 6021.000000
1453.860596 7435.000000
1455.480591 6267.000000
1457.099854 6898.000000
1458.717773 5650.000000
1460.335083 5616.500000
1461.951416 5583.000000
1463.566528 7282.000000
1465.180786 6301.000000
1466.794189 5288.000000
1468.406494 5588.000000
1470.017944 6346.000000
1471.628540 6453.000000
1473.237915 6046.000000
1474.846313 6024.000000
1476.453857 6213.000000
1478.060425 6829.000000
1479.666260 5347.000000
1481.270874 6361.000000
1482.874634 5564.000000
1484.477173 6834.000000
1486.079102 5571.000000
1487.679810 5502.000000
1489.279785 5654.000000
1490.878662 6249.000000
1492.476685 6556.000000
1494.073608 6694.000000
1495.669678 6449.000000
1497.264771 6009.000000
1498.858887 5467.000000
1500.452271 6544.000000
1502.044556 5561.000000
1503.635620 6226.000000
1505.226196 6790.000000
1506.815430 6494.000000
1508.404053 6201.000000
1509.991577 6575.000000
1511.578003 6912.000000
1513.163696 6260.000000
1514.748291 6688.000000
1516.332031 6238.000000
1517.914673 6246.000000
1519.496582 6644.000000
1521.077393 6720.000000
1522.657471 6089.000000
1524.236328 6257.000000
1525.814331 6404.000000
1527.391602 6388.000000
1528.967651 5704.000000
1530.542969 5950.000000
1532.117188 6223.000000
1533.690674 5561.000000
1535.262939 6012.000000
1536.834473 6393.000000
1538.405029 6461.000000
1539.974731 6415.000000
1541.543213 5479.000000
1543.110962 6612.000000
1544.677856 5646.000000
1546.243530 6846.000000
1547.808472 5934.000000
1549.372314 5078.000000
1550.935547 7517.000000
1552.497437 6317.000000
1554.058716 6009.000000
1555.618896 5744.000000
1557.178345 5780.000000
1558.736694 5886.000000
1560.294312 6283.000000
1561.850830 7094.000000
1563.406128 5904.000000
1564.960815 6352.000000
1566.514771 5617.000000
1568.067749 6319.000000
1569.619385 5689.000000
1571.170288 5893.000000
1572.720459 6229.000000
1574.269653 6446.000000
1575.817505 5815.000000
1577.364868 5563.000000
1578.911255 5738.000000
1580.456787 5119.000000
1582.001343 6720.000000
1583.544678 6407.000000
1585.087402 6706.000000
1586.629272 6469.000000
1588.170044 6778.000000
1589.709839 5896.000000
1591.248901 6715.000000
1592.786865 5996.000000
1594.324341 6163.000000
1595.860474 5860.000000
1597.395508 6725.000000
1598.930054 6259.000000
1600.463623 6001.000000
1601.996338 6062.000000
1603.527466 6328.000000
1605.058350 6319.000000
1606.588379 5814.000000
1608.117188 6222.000000
1609.644897 6213.000000
1611.171997 5996.000000
1612.698364 5907.000000
1614.223755 6277.000000
1615.748291 5816.000000
1617.271484 5822.000000
1618.793945 5637.000000
1620.315674 6671.000000
1621.836548 7002.000000
1623.355957 15636.000000
1624.874878 6169.000000
1626.393066 6035.000000
1627.910400 5971.000000
1629.426636 6385.000000
1630.941528 7048.000000
1632.455933 6827.000000
1633.969604 5850.000000
1635.482178 6774.000000
1636.993530 5955.000000
1638.504517 6472.000000
1640.014404 6259.000000
1641.523438 6212.000000
1643.031128 5664.000000
1644.538452 6110.000000
1646.044922 7149.000000
1647.550415 6306.000000
1649.055054 6821.000000
1650.558228 6157.000000
1652.060791 6612.000000
1653.562988 6358.000000
1655.063843 6688.000000
1656.563599 7606.000000
1658.062500 6006.000000
1659.561035 6549.000000
1661.058350 6293.000000
1662.554932 6016.000000
1664.049927 6493.000000
1665.544678 6425.000000
1667.038574 5258.000000
1668.531494 13137.500000
1670.023071 21017.000000
1671.514160 6499.000000
1673.004639 6195.000000
1674.494019 5993.000000
1675.981934 6932.000000
1677.469604 6891.000000
1678.956299 6074.000000
1680.442139 5343.000000
1681.927124 6074.000000
1683.410645 6220.000000
1684.893921 6390.000000
1686.376343 5900.000000
1687.857666 6238.000000
1689.337524 6297.000000
1690.817139 5533.000000
1692.296021 6629.000000
1693.773926 6020.000000
1695.250854 6236.000000
1696.726563 5815.000000
1698.201904 6058.000000
1699.676025 6299.000000
1701.149536 5525.000000
1702.621582 5632.000000
1704.093384 6922.000000
1705.564209 6468.000000
1707.034180 7154.000000
1708.502808 5178.000000
1709.970947 5928.000000
1711.438354 6432.000000
1712.904663 5533.000000
1714.370361 5836.000000
1715.834351 6253.000000
1717.298218 6073.000000
1718.761230 7101.000000
1720.223267 6386.000000
1721.684082 6708.000000
1723.144287 5510.000000
1724.603760 5767.000000
1726.062378 6190.000000
1727.520020 5972.000000
1728.976318 6325.000000
1730.432373 6073.000000
1731.887451 6479.000000
1733.341553 6093.000000
1734.794434 6880.000000
1736.247070 6019.000000
1737.698608 6863.000000
1739.149414 6027.000000
1740.599243 6634.000000
1742.047729 6000.000000
1743.495850 7362.000000
1744.943115 6615.000000
1746.389648 6683.000000
1747.834595 6737.000000
1749.279297 6197.000000
1750.723145 5868.000000
1752.166138 5527.000000
1753.607666 6627.000000
1755.048950 6366.000000
1756.489380 19518.000000
1757.928833 6356.000000
1759.367310 5347.000000
1760.804810 6042.000000
1762.241821 7597.000000
1763.677856 5832.000000
1765.113037 7152.000000
1766.546753 6275.000000
1767.980347 6452.000000
1769.412964 6698.000000
1770.844727 5840.000000
1772.275635 5752.000000
1773.705322 6378.000000
1775.134277 6216.000000
1776.562744 6257.000000
1777.990234 6733.000000
1779.416382 6325.000000
1780.842285 5649.000000
1782.267090 6913.000000
1783.691284 5587.000000
1785.114014 6739.000000
1786.536255 6570.000000
1787.957764 6895.000000
1789.378540 5831.000000
1790.798340 6043.000000
1792.216797 6270.000000
1793.634766 6876.000000
1795.052124 5515.000000
1796.468628 6083.000000
1797.883667 6550.000000
1799.298340 5872.000000
1800.712402 6644.000000
1802.125244 6014.000000
1803.537476 6999.000000
1804.948364 7137.000000
1806.358765 7781.000000
1807.768433 6500.000000
1809.177124 5936.000000
1810.584717 5442.000000
1811.991821 6478.000000
1813.398071 6350.000000
1814.803345 6784.000000
1816.207520 6044.000000
1817.611328 5960.000000
1819.014160 6240.000000
1820.416138 6040.000000
1821.817505 5861.000000
1823.217407 6416.000000
1824.616699 6540.000000
1826.015503 6573.000000
1827.413452 7461.000000
1828.810059 5779.000000
1830.206055 6765.000000
1831.601318 6029.000000
1832.995972 8166.000000
1834.389648 5998.000000
1835.781982 6810.000000
1837.173828 6439.000000
1838.565063 5938.000000
1839.955322 7104.000000
1841.344360 6049.000000
1842.733032 6121.000000
1844.120728 6027.000000
1845.507690 5840.000000
1846.893311 6952.000000
1848.278687 5846.000000
1849.663208 6499.000000
1851.046997 6355.000000
1852.429688 6413.000000
1853.811157 5440.000000
1855.192139 6580.000000
1856.572632 6327.000000
1857.952148 5783.000000
1859.330200 5995.000000
1860.708130 6321.000000
1862.085083 7869.000000
1863.461304 6119.000000
1864.836670 6163.000000
1866.210571 5715.000000
1867.584351 5778.000000
1868.957275 6230.000000
1870.329102 5926.000000
1871.699951 6942.000000
1873.070435 5499.000000
1874.439819 6045.000000
1875.808716 6156.000000
1877.176025 7209.000000
1878.543213 6129.000000
1879.909424 5995.000000
1881.274902 6830.000000
1882.639648 7588.000000
1884.002808 6823.000000
1885.365845 6958.000000
1886.728027 6382.000000
1888.089355 6472.000000
1889.449341 5665.000000
1890.808960 5826.000000
1892.167969 6196.000000
1893.526001 6597.000000
1894.883179 7324.000000
1896.239136 5910.000000
1897.594849 7677.000000
1898.949585 5852.000000
1900.303467 5498.000000
1901.656250 5960.000000
1903.008545 6025.000000
1904.360107 5939.000000
1905.710815 6889.000000
1907.060303 6589.000000
1908.409302 6757.000000
1909.757446 5834.000000
1911.104980 6207.000000
1912.451782 6359.000000
1913.796997 6862.000000
1915.141968 6098.000000
1916.486206 5496.000000
1917.829590 6526.000000
1919.171631 6059.000000
1920.513428 6697.000000
1921.854370 6977.000000
1923.194580 6201.000000
1924.533813 6264.000000
1925.872070 6282.000000
1927.209717 6491.000000
1928.546631 7055.000000
1929.882690 6767.000000
1931.217529 5633.000000
1932.552002 6752.000000
1933.885742 7274.000000
1935.218628 6230.000000
1936.550049 5766.000000
1937.881592 6414.000000
1939.211792 6700.000000
1940.541504 5836.000000
1941.870361 6116.000000
1943.197998 5881.000000
1944.525146 5048.000000
1945.851563 5908.000000
1947.177246 6568.000000
1948.501587 5785.000000
1949.825684 6583.000000
1951.148926 6345.000000
1952.471436 6417.000000
1953.792847 5817.000000
1955.113281 7411.000000
1956.433105 6079.000000
1957.752563 5594.000000
1959.071045 6930.000000
1960.388184 5967.000000
1961.704956 5882.000000
1963.020996 6510.000000
1964.336304 6645.000000
1965.650146 6345.000000
1966.963745 5643.000000
1968.276611 6324.000000
1969.588623 6008.000000
1970.900024 6086.000000
1972.210083 6427.000000
1973.519653 5859.000000
1974.828491 6193.000000
1976.136719 6645.000000
1977.443604 6136.000000
1978.749878 7294.000000
1980.055786 5574.000000
1981.360474 6434.000000
1982.664673 5958.000000
1983.967651 5748.000000
1985.270264 7576.000000
1986.571899 6120.000000
1987.872925 6708.000000
1989.172363 6100.000000
1990.471924 6617.000000
1991.770386 5321.000000
1993.068359 6116.000000
1994.364746 6124.000000
1995.661133 5840.000000
1996.956543 5638.000000
1998.251221 6546.000000
1999.545044 5720.000000
2000.837646 6569.000000
2002.129761 5669.000000
2003.421387 7225.000000
2004.712280 6465.000000
2006.001587 6213.000000
2007.290649 6831.000000
2008.578979 5983.000000
2009.866577 6038.000000
2011.153320 6690.000000
2012.438965 5650.000000
2013.724243 6363.000000
2015.008545 6047.000000
2016.292236 5597.000000
2017.574585 6144.000000
2018.856567 6612.000000
2020.138062 6830.000000
2021.418579 5963.000000
2022.698364 6098.000000
2023.977051 6832.000000
2025.255005 5860.000000
2026.532471 5957.000000
2027.809326 6347.000000
2029.084473 5853.000000
2030.359741 6580.000000
2031.634033 6072.000000
2032.907349 5947.000000
2034.179810 6006.000000
2035.451904 6130.000000
2036.722900 7017.000000
2037.993652 6608.000000
2039.263062 6022.000000
2040.531372 6769.000000
2041.799683 6645.000000
2043.067017 5947.000000
2044.333618 6012.000000
2045.598999 5609.000000
2046.863770 5567.000000
2048.128174 5514.000000
2049.391602 5894.000000
2050.654541 6408.000000
2051.915527 6223.000000
2053.177002 6094.000000
2054.437256 5933.000000
2055.696777 6456.000000
2056.955566 6333.000000
2058.213379 7019.000000
2059.470703 6140.000000
2060.727295 5955.000000
2061.982422 6512.000000
2063.237549 5663.000000
2064.491699 5663.000000
2065.745117 5649.000000
2066.997803 6886.000000
2068.249268 6277.000000
2069.500488 6286.000000
2070.750977 5687.000000
2072.000732 5439.000000
2073.249023 6520.000000
2074.497314 6523.000000
2075.744629 7464.000000
2076.991211 5698.000000
2078.237061 6095.000000
2079.481689 7033.000000
2080.725830 7675.000000
2081.969482 5524.000000
2083.212158 6053.000000
2084.453613 7018.000000
2085.694824 5982.000000
2086.935547 6418.000000
2088.175293 6796.000000
2089.413818 7114.000000
2090.651855 6221.000000
2091.889160 5812.000000
2093.126221 6701.000000
2094.361816 6085.000000
2095.596680 6216.000000
2096.831299 6087.000000
2098.064941 5680.000000
2099.297607 6102.000000
2100.529541 6882.000000
2101.760986 6452.000000
2102.991455 6762.000000
2104.221191 6033.000000
2105.450684 6084.000000
2106.678223 6057.000000
2107.906006 6064.000000
2109.133057 6300.000000
2110.359131 5563.000000
2111.583740 6448.000000
2112.808594 6955.000000
2114.032227 7117.000000
2115.255371 6305.000000
2116.477295 7658.000000
2117.698975 5980.000000
2118.919678 6830.000000
2120.139648 6091.000000
2121.359131 6170.000000
2122.577148 6701.000000
2123.795166 7085.000000
2125.012207 5756.000000
2126.228760 5834.000000
2127.443604 6581.000000
2128.658691 6307.000000
2129.872803 7091.000000
2131.086182 5696.000000
2132.298828 6148.000000
2133.510010 5806.000000
2134.721436 6558.000000
2135.931641 6851.000000
2137.141357 6020.000000
2138.349609 6177.000000
2139.557861 5720.000000
2140.765381 5876.000000
2141.971680 7518.000000
2143.177246 5892.000000
2144.382568 5702.000000
2145.586914 5484.000000
2146.790527 6341.000000
2147.993652 6253.000000
2149.195313 6641.000000
2150.396729 5377.000000
2151.597412 6376.000000
2152.797363 6111.000000
2153.996094 6015.000000
2155.194580 7007.000000
2156.392578 6202.000000
2157.589600 6045.000000
2158.785889 5239.000000
2159.980957 5326.000000
2161.175781 6142.000000
2162.369873 5612.000000
2163.562988 6103.000000
2164.755127 6975.000000
2165.947021 5932.000000
2167.138184 6320.000000
2168.328369 6345.000000
2169.517822 6563.000000
2170.706787 6787.000000
2171.894775 6080.000000
2173.082520 5764.000000
2174.268799 5930.000000
2175.454346 6559.000000
2176.639648 5950.000000
2177.824463 5840.000000
2179.008057 6393.000000
2180.190918 7596.000000
2181.372803 6315.000000
2182.554443 5973.000000
2183.735596 6660.000000
2184.915527 5739.000000
2186.094482 5624.000000
2187.272949 6398.000000
2188.451172 6895.000000
2189.628174 7225.000000
2190.804199 6743.000000
2191.979980 6096.000000
2193.155273 5693.000000
2194.329102 6691.000000
2195.502441 6247.000000
2196.675537 6158.000000
2197.847412 6445.000000
2199.018799 7099.000000
2200.189697 6366.000000
2201.358887 6918.000000
2202.528076 7632.000000
2203.696777 6211.000000
2204.864502 5830.000000
2206.031250 5633.000000
2207.197266 7152.000000
2208.362793 6736.000000
2209.528076 5994.000000
2210.691895 6744.000000
2211.855225 5486.000000
2213.017334 6293.000000
2214.179688 6248.000000
2215.340820 6733.000000
2216.500977 6732.000000
2217.660645 6384.000000
2218.820068 6631.000000
2219.978271 6324.000000
2221.135498 6347.000000
2222.292480 6801.000000
2223.448730 6652.000000
2224.604248 6827.000000
2225.759033 6308.000000
2226.912842 6490.000000
2228.065674 6179.000000
2229.218994 6913.000000
2230.370361 6219.000000
2231.521484 6164.000000
2232.671875 6585.000000
2233.821777 7698.000000
2234.970703 6330.000000
2236.119141 5270.000000
2237.266113 6797.000000
2238.413330 7147.000000
2239.559326 6065.000000
2240.705078 7284.000000
2241.849121 7341.000000
2242.993408 6810.000000
2244.136719 6246.000000
2245.279297 6018.000000
2246.420898 5797.000000
2247.562256 5846.000000
2248.702637 6453.000000
2249.842285 6529.000000
2250.981445 5904.000000
2252.119385 5958.000000
2253.257324 6245.000000
2254.394287 5287.000000
2255.530518 6367.000000
2256.665771 6185.000000
2257.800293 7345.000000
2258.934570 6411.000000
2260.068359 5474.000000
2261.200684 6143.000000
2262.332520 6830.000000
2263.463867 6347.000000
2264.594238 6578.000000
2265.724365 8128.000000
2266.853271 6735.000000
2267.981689 6140.000000
2269.109619 5599.000000
2270.236572 6173.000000
2271.362793 6029.000000
2272.488037 6726.000000
2273.613281 6588.000000
2274.737793 6431.000000
2275.861084 6023.000000
2276.983643 6342.000000
2278.105713 5993.000000
2279.227295 7492.000000
2280.348145 6455.000000
2281.467773 6463.000000
2282.586914 7164.000000
2283.705811 7731.000000
2284.823975 7297.000000
2285.941162 5958.000000
2287.057373 6511.000000
2288.173340 6972.000000
2289.288574 6850.000000
2290.403076 7406.000000
2291.516357 5848.000000
2292.629639 6339.000000
2293.742188 6029.000000
2294.854004 5356.000000
2295.965088 6812.000000
2297.074951 6409.000000
2298.184326 6190.000000
2299.293457 6714.000000
2300.401611 6392.000000
2301.508789 6797.000000
2302.615723 5934.000000
2303.721924 6320.000000
2304.827637 6712.000000
2305.931885 6616.000000
2307.035889 5419.000000
2308.139404 5724.000000
2309.242432 6592.000000
2310.344238 7420.000000
2311.445313 7376.000000
2312.545898 6638.000000
2313.645996 5545.000000
2314.745361 6388.000000
2315.843262 6613.000000
2316.941650 7084.000000
2318.038574 8241.000000
2319.135254 6898.000000
2320.231445 5820.000000
2321.325928 6831.000000
2322.420410 7533.000000
2323.514160 5887.000000
2324.607666 6065.000000
2325.699463 6484.000000
2326.791260 7090.000000
2327.882324 6170.000000
2328.972656 6266.000000
2330.062012 6955.000000
2331.151367 6125.000000
2332.239502 6345.000000
2333.327148 6868.000000
2334.414551 6529.000000
2335.500244 6722.000000
2336.585693 7807.000000
2337.670898 6394.000000
2338.755127 6773.000000
2339.838379 5958.000000
2340.921387 6480.000000
2342.003418 7066.000000
2343.085205 6008.000000
2344.166260 7467.000000
2345.246094 6632.000000
2346.325439 5717.000000
2347.404297 6848.000000
2348.482666 6536.000000
2349.559570 6315.000000
2350.636230 6980.000000
2351.712646 6110.000000
2352.788086 6472.000000
2353.862549 5949.000000
2354.936768 6323.000000
2356.010254 6789.000000
2357.083252 6277.000000
2358.155029 7077.000000
2359.226563 6283.000000
2360.297119 6854.000000
2361.367432 7615.000000
2362.436768 7526.000000
2363.505127 6882.000000
2364.573242 6798.000000
2365.640625 7128.000000
2366.707520 7155.000000
2367.773682 6017.000000
2368.838623 6869.000000
2369.903564 7044.000000
2370.967773 6385.000000
2372.031250 6950.000000
2373.093506 5766.000000
2374.155762 6282.000000
2375.217041 6405.000000
2376.278076 5962.000000
2377.337891 6321.000000
2378.396973 7964.000000
2379.456055 6517.000000
2380.514160 7583.000000
2381.571533 6932.000000
2382.627930 8083.000000
2383.684082 7825.000000
2384.739746 6238.000000
2385.794678 7147.000000
2386.848145 6856.000000
2387.901855 6646.000000
2388.954590 6314.000000
2390.006836 6797.000000
2391.058350 6155.000000
2392.108887 6645.000000
2393.159180 6521.000000
2394.208496 6289.000000
2395.257813 6243.000000
2396.305664 6986.000000
2397.353027 7023.000000
2398.400146 6302.000000
2399.446289 6911.000000
2400.491699 6150.000000
2401.536377 6792.000000
2402.581055 7778.000000
2403.624268 7484.000000
2404.667480 6563.000000
2405.709229 5828.000000
2406.751221 6732.000000
2407.792480 7112.000000
2408.832764 6124.000000
2409.872314 6422.000000
2410.910889 6457.000000
2411.949707 6024.000000
2412.987305 6549.000000
2414.024658 6908.000000
2415.060791 7417.000000
2416.096680 6227.000000
2417.131836 6252.000000
2418.166504 6687.000000
2419.199707 7185.000000
2420.233154 6458.000000
2421.265625 6751.000000
2422.297852 6840.000000
2423.328613 7162.000000
2424.359375 6454.000000
2425.389648 6892.000000
2426.418701 6867.000000
2427.447754 6709.000000
2428.475098 7429.000000
2429.502930 6772.000000
2430.529541 7229.000000
2431.555908 6938.000000
2432.580811 7871.000000
2433.605957 6606.000000
2434.630127 7169.000000
2435.654053 6706.000000
2436.676758 5860.000000
2437.698730 6354.000000
2438.720459 6696.000000
2439.741455 6671.000000
2440.761963 6036.000000
2441.781250 6588.000000
2442.800537 6608.000000
2443.818848 8504.000000
2444.836914 6334.000000
2445.853516 6481.000000
2446.870117 6604.000000
2447.885986 6033.000000
2448.901855 7116.000000
2449.916260 6877.000000
2450.929932 5618.000000
2451.943115 7296.000000
2452.956055 6059.000000
2453.968262 7284.000000
2454.979492 6711.000000
2455.990479 7793.000000
2457.000732 6373.000000
2458.010498 7631.000000
2459.019287 5976.000000
2460.027344 5923.000000
2461.035400 6326.000000
2462.042236 7443.000000
2463.048828 5470.000000
2464.054199 7453.000000
2465.059326 6971.000000
2466.064209 5869.000000
2467.067871 6558.000000
2468.071289 6404.000000
2469.073730 7638.000000
2470.075928 7303.000000
2471.077637 6878.000000
2472.078369 6657.000000
2473.078125 7077.000000
2474.077881 6801.000000
2475.076660 5723.000000
2476.074951 6624.000000
2477.072266 7018.000000
2478.069336 6211.000000
2479.066406 6971.000000
2480.062012 5834.000000
2481.057617 7189.000000
2482.051514 6721.000000
2483.045410 8102.000000
2484.038818 6950.000000
2485.031738 6741.000000
2486.023682 7575.000000
2487.014893 7186.000000
2488.005859 6712.000000
2488.996338 5885.000000
2489.985840 6646.000000
2490.974609 6566.000000
2491.963379 5716.000000
2492.951172 6857.000000
2493.937744 6555.000000
2494.924316 8008.000000
2495.910400 6780.000000
2496.895752 7113.000000
2497.880127 8458.000000
2498.864258 6062.000000
2499.848389 6961.000000
2500.831055 5817.000000
2501.813232 6995.000000
2502.794922 6933.000000
2503.775879 7305.000000
2504.756348 6474.000000
2505.736572 5767.000000
2506.715332 6355.000000
2507.693848 7579.000000
2508.671875 6822.000000
2509.649414 7105.000000
2510.625977 6171.000000
2511.602295 5983.000000
2512.577881 6442.000000
2513.552979 6293.000000
2514.527588 6514.000000
2515.500977 7563.000000
2516.474121 6862.000000
2517.447021 6876.000000
2518.418945 6179.000000
2519.390137 6865.000000
2520.360840 6931.000000
2521.331299 7765.000000
2522.301025 8060.000000
2523.269775 6182.000000
2524.237793 6151.000000
2525.205811 7778.000000
2526.172852 6354.000000
2527.139648 5505.000000
2528.105225 7360.000000
2529.070801 7003.000000
2530.035645 7861.000000
2531.000000 6384.000000
2531.963135 6399.000000
2532.926514 5932.000000
2533.888916 5998.000000
2534.851074 6739.000000
2535.812012 6460.000000
2536.772217 6219.000000
2537.732666 6205.000000
2538.692139 6833.000000
2539.650879 6839.000000
2540.608643 6728.000000
2541.566650 6274.000000
2542.523926 6831.000000
2543.480225 6158.000000
2544.436279 7154.000000
2545.391113 6261.000000
2546.346191 7677.000000
2547.300537 7075.000000
2548.254150 6777.000000
2549.206787 7216.000000
2550.159180 6794.000000
2551.111084 6983.000000
2552.062256 6439.000000
2553.012695 7714.000000
2553.962646 7273.000000
2554.912354 7404.000000
2555.861328 6686.000000
2556.809814 6242.000000
2557.757080 7089.000000
2558.704346 6322.000000
2559.650879 6537.000000
2560.596924 6777.000000
2561.541992 7424.000000
2562.486816 6699.000000
2563.431152 7217.000000
2564.375000 6799.000000
2565.318359 6706.000000
2566.260254 6625.000000
2567.202393 6594.000000
2568.143799 6231.000000
2569.084473 7215.000000
2570.024414 7312.000000
2570.964355 5735.000000
2571.903320 6233.000000
2572.842041 7583.000000
2573.779785 7202.000000
2574.717285 5521.000000
2575.654053 7071.000000
2576.590088 6891.000000
2577.525635 7555.000000
2578.460449 6400.000000
2579.395264 5942.000000
2580.329102 7078.000000
2581.262451 7266.000000
2582.195068 5839.000000
2583.127441 6952.000000
2584.059082 5508.000000
2584.990234 7056.000000
2585.920898 7024.000000
2586.850342 6842.000000
2587.779785 7244.000000
2588.708740 6473.000000
2589.637451 7572.000000
2590.564453 7425.000000
2591.491699 5997.000000
2592.418457 6876.000000
2593.344482 6298.000000
2594.270264 5669.000000
2595.194824 7654.000000
2596.119141 7578.000000
2597.042969 5364.000000
2597.966309 7300.000000
2598.888672 6358.000000
2599.810791 6976.000000
2600.732422 8264.000000
2601.653320 6413.000000
2602.573486 6021.000000
2603.493408 6449.000000
2604.412842 6396.000000
2605.332031 6457.000000
2606.250244 5894.000000
2607.167236 6003.000000
2608.084473 7242.000000
2609.001465 5909.000000
2609.917480 7590.000000
2610.832275 6617.000000
2611.747559 6663.000000
2612.662109 6549.000000
2613.575684 6531.000000
2614.489258 6133.000000
2615.401611 7658.000000
2616.313965 7102.000000
2617.225342 6827.000000
2618.136475 5735.000000
2619.046875 7243.000000
2619.957031 6696.000000
2620.866455 6200.000000
2621.775391 6582.000000
2622.683350 6339.000000
2623.591553 6891.000000
2624.498779 6680.000000
2625.405518 7069.000000
2626.311523 6001.000000
2627.217285 6591.000000
2628.122314 6579.000000
2629.027100 7840.000000
2629.931152 6527.000000
2630.834229 6382.000000
2631.737305 6454.000000
2632.639404 5670.000000
2633.541504 6804.000000
2634.443359 7050.000000
2635.343506 6748.000000
2636.243896 6456.000000
2637.143555 6500.000000
2638.042969 6045.000000
2638.940918 6925.000000
2639.839355 6804.000000
2640.737305 6353.000000
2641.634521 6133.000000
2642.530518 6143.000000
2643.426514 6834.000000
2644.322266 6112.000000
2645.217285 6519.000000
2646.112061 6734.000000
2647.005371 7135.000000
2647.898682 6325.000000
2648.791748 6784.000000
2649.684570 6451.000000
2650.575684 7465.000000
2651.467041 6495.000000
2652.357910 7647.000000
2653.248047 7332.000000
2654.137939 6590.000000
2655.026611 7330.000000
2655.915527 6655.000000
2656.803955 6607.000000
2657.691406 7421.000000
2658.577881 6544.000000
2659.464844 7200.000000
2660.351074 6843.000000
2661.236816 6826.000000
2662.121338 6547.000000
2663.005859 6469.000000
2663.890137 6224.000000
2664.773682 7123.000000
2665.656738 7784.000000
2666.539063 7439.000000
2667.420898 6179.000000
2668.302002 6669.000000
2669.183350 6087.000000
2670.063232 6653.000000
2670.943359 7398.000000
2671.822754 7211.000000
2672.702148 6243.000000
2673.580811 6102.000000
2674.457764 6471.000000
2675.335449 6796.000000
2676.212402 6419.000000
2677.088623 8158.000000
2677.964355 7184.000000
2678.839355 6315.000000
2679.714600 7696.000000
2680.588867 7043.000000
2681.462646 7364.000000
2682.335693 7016.000000
2683.208496 6250.000000
2684.081055 6148.000000
2684.952881 7006.000000
2685.823975 6577.000000
2686.694824 6940.000000
2687.565186 7145.000000
2688.435303 6729.000000
2689.303711 6284.000000
2690.172852 7343.000000
2691.041260 7137.000000
2691.909424 6674.000000
2692.776855 6946.000000
2693.643066 5921.000000
2694.509766 7190.000000
2695.375488 7427.000000
2696.241211 7249.000000
2697.105469 7941.000000
2697.970459 6671.000000
2698.833984 7232.000000
2699.697754 5914.000000
2700.560059 7479.000000
2701.422852 6831.000000
2702.284668 5998.000000
2703.145996 6936.000000
2704.007324 6808.000000
2704.867432 7447.000000
2705.727539 7251.000000
2706.587158 6661.000000
2707.446533 6869.000000
2708.304199 7132.000000
2709.162109 6867.000000
2710.020508 7363.000000
2710.877686 6775.000000
2711.734131 6039.000000
2712.590088 6905.000000
2713.446045 6142.000000
2714.301270 7014.000000
2715.155762 6151.000000
2716.009766 6811.000000
2716.863770 7330.000000
2717.716797 6333.000000
2718.570068 6497.000000
2719.421631 7754.000000
2720.273682 6794.000000
2721.125488 6356.000000
2721.976074 6554.000000
2722.826660 6618.000000
2723.676758 7173.000000
2724.526123 7077.000000
2725.375488 7001.000000
2726.223633 6673.000000
2727.071289 6605.000000
2727.919434 7027.000000
2728.766357 6907.000000
2729.613770 5586.000000
2730.459717 7495.000000
2731.304932 7063.000000
2732.150635 6478.000000
2732.995361 6967.000000
2733.840088 7473.000000
2734.683594 6919.000000
2735.527344 7894.000000
2736.370361 7141.000000
2737.212891 6083.000000
2738.054443 6343.000000
2738.896484 6859.000000
2739.737549 6977.000000
2740.578369 5814.000000
2741.418945 5902.000000
2742.258301 7830.000000
2743.097656 6903.000000
2743.937012 6991.000000
2744.775146 6816.000000
2745.612793 7901.000000
2746.450439 6373.000000
2747.287598 7134.000000
2748.124512 6275.000000
2748.960938 6049.000000
2749.796143 6630.000000
2750.631592 6274.000000
2751.466553 6393.000000
2752.300781 6250.000000
2753.134766 6875.000000
2753.968262 6905.000000
2754.801758 8024.000000
2755.634277 6855.000000
2756.466309 7300.000000
2757.297852 6878.000000
2758.129395 7079.000000
2758.959961 7168.000000
2759.790771 7282.000000
2760.620361 7349.000000
2761.449951 6689.000000
2762.279297 7367.000000
2763.107910 6900.000000
2763.936035 6813.000000
2764.763672 6943.000000
2765.591309 6671.000000
2766.418457 7883.000000
2767.244873 5837.000000
2768.070801 7558.000000
2768.896240 6939.000000
2769.721436 7827.000000
2770.546631 7099.000000
2771.370605 6774.000000
2772.194580 6569.000000
2773.018555 7686.000000
2773.841309 6658.000000
2774.664307 6835.000000
2775.486084 6945.000000
2776.307861 6990.000000
2777.129639 6516.000000
2777.950439 8024.000000
2778.770508 6578.000000
2779.590820 6987.000000
2780.410645 7305.000000
2781.230469 6472.000000
2782.048340 6009.000000
2782.867432 8077.000000
2783.685303 6467.000000
2784.502930 6823.000000
2785.320068 7169.000000
2786.136719 7327.000000
2786.953125 7215.000000
2787.769043 6363.000000
2788.584717 5978.000000
2789.399414 6487.000000
2790.214600 7047.000000
2791.029053 7258.000000
2791.843018 6606.000000
2792.656738 7509.000000
2793.469238 8783.000000
2794.281982 7007.000000
2795.094238 7561.000000
2795.906006 7297.000000
2796.717041 7438.000000
2797.528809 6518.000000
2798.339355 7254.000000
2799.149902 7067.000000
2799.958984 7470.000000
2800.768799 8352.000000
2801.577881 7824.000000
2802.386719 6688.000000
2803.195068 7106.000000
2804.002441 6196.000000
2804.810303 6532.000000
2805.617432 6984.000000
2806.424316 7052.000000
2807.229980 7256.000000
2808.036133 6684.000000
2808.841553 6513.000000
2809.646973 7388.000000
2810.451660 6248.000000
2811.255371 7624.000000
2812.059570 7533.000000
2812.863281 6394.000000
2813.666748 6116.000000
2814.468750 6345.000000
2815.271484 7356.000000
2816.073486 7806.000000
2816.875244 6168.000000
2817.676514 6537.000000
2818.477295 7315.000000
2819.277588 6564.000000
2820.078125 6752.000000
2820.877686 8068.000000
2821.676758 7227.000000
2822.475830 6483.000000
2823.274658 6997.000000
2824.072998 6392.000000
2824.870361 7104.000000
2825.667969 7054.000000
2826.464844 6679.000000
2827.261963 7411.000000
2828.058350 8165.000000
2828.854004 7033.000000
2829.649658 7368.000000
2830.445068 7550.000000
2831.239990 7506.000000
2832.034180 6706.000000
2832.828369 6803.000000
2833.622314 5725.000000
2834.415771 6908.000000
2835.208496 7172.000000
2836.000977 8172.000000
2836.793457 7679.000000
2837.585693 7530.000000
2838.377441 6480.000000
2839.168213 6844.000000
2839.958984 8857.000000
2840.750000 7491.000000
2841.540039 6300.000000
2842.329590 7725.000000
2843.119385 7221.000000
2843.908203 7331.000000
2844.697021 7850.000000
2845.485840 7716.000000
2846.273682 7599.000000
2847.061035 7222.000000
2847.848633 7490.000000
2848.635742 7381.000000
2849.422119 6721.000000
2850.208496 7499.000000
2850.994629 7252.000000
2851.780273 7612.000000
2852.564941 7235.000000
2853.350098 6950.000000
2854.135010 7435.000000
2854.919189 7132.000000
2855.703369 6941.000000
2856.486328 8307.000000
2857.269531 6857.000000
2858.052490 6734.000000
2858.834961 7876.000000
2859.617188 6315.000000
2860.398926 6730.000000
2861.180420 7647.000000
2861.962158 7537.000000
2862.743164 7700.000000
2863.523438 6663.000000
2864.303467 6748.000000
2865.083496 8219.000000
2865.863281 7531.000000
2866.642090 8149.000000
2867.421143 7662.000000
2868.199707 6801.000000
2868.978027 7043.000000
2869.755859 7302.000000
2870.533447 7018.000000
2871.310791 7480.000000
2872.087891 6934.000000
2872.864502 6495.000000
2873.640625 7548.000000
2874.416748 7217.000000
2875.192383 8301.000000
2875.967773 7224.000000
2876.742676 6591.000000
2877.517334 8088.000000
2878.291992 6651.000000
2879.066406 7855.000000
2879.840088 6789.000000
2880.613037 7207.000000
2881.386719 6845.000000
2882.159424 7590.000000
2882.932129 7923.000000
2883.704102 8206.000000
2884.475830 6226.000000
2885.248047 6771.000000
2886.019043 6996.000000
2886.789551 6179.000000
2887.560547 8333.000000
2888.331543 7420.000000
2889.101807 8038.000000
2889.871094 7648.000000
2890.640625 7075.000000
2891.410156 7343.000000
2892.179199 7396.000000
2892.947754 7924.000000
2893.716309 7701.000000
2894.483887 7074.000000
2895.251953 6675.000000
2896.019531 7469.000000
2896.787109 8385.000000
2897.553467 7371.000000
2898.320801 6569.000000
2899.086914 7259.000000
2899.853271 7055.000000
2900.618164 8335.000000
2901.383545 7058.000000
2902.149414 6515.000000
2902.913818 7694.000000
2903.678223 7763.000000
2904.442871 8495.000000
2905.206543 6677.000000
2905.970947 8523.000000
2906.734619 6709.000000
2907.497559 8462.000000
2908.260254 6550.000000
2909.023438 9078.000000
2909.786133 7042.000000
2910.547607 6778.000000
2911.309570 6778.000000
