scanname Analyse097
timestamp 2017-02-10 22:30:28
ccdbias 953.855957
ccdgain 3.473401
sigmaread 8.960639
laserwavenum -0.501396
wavenumcorrection 0.021568
scancount 1
totalexposurems 10000
singleexposurems 10000
measurementstate Unknown
scanmode Manual
snr 12.134784 0.636201 0.317521
replacelist 1
1163 6139.000000 5504.000000
peaks 10
400.303009 0.035994 0.000000 0.480561 0.000053
525.957642 0.028406 0.000000 0.122188 0.000007
809.582581 0.030251 0.000000 0.876235 0.000165
841.417114 0.028063 0.000000 0.399190 0.000078
974.154114 0.019685 0.000000 0.197500 0.000045
997.633240 0.018476 0.000000 0.130512 0.000020
1039.999634 0.017480 0.000000 0.073087 0.000011
1152.901001 0.020981 0.000000 0.189484 0.000037
1329.670654 0.028196 0.000000 0.244087 0.000062
1461.128540 0.032865 0.000000 0.247551 0.000168
finalresult GLS_Multiple 88
A11883	Polypropylene (Isotactic)	5.576886e-001
A13180	Polypropylene (lot B)	5.539811e-001
A13500	Poly(propylene-co-ethylene)	5.481716e-001
A0115	Polypropylene	5.432222e-001
A14069	(R)-(-)-1,2-Propanediol	2.382054e-001
A0518	Propylene glycol	2.321660e-001
A9546	4-Methoxy-alpha-methylbenzyl alcohol	2.290766e-001
A0400	Potassium permanganate	2.221811e-001
A2703	Acetaldehyde dimethyl acetal	2.212713e-001
A2313	Barium peroxide	2.125024e-001
A1270	Methyl DL-lactate	2.057084e-001
A2721	Formaldehyde diethyl acetal	2.032520e-001
A2210	Calcium peroxide hydrate	1.960022e-001
A0524	Propionic acid	1.959015e-001
A13820	(-)-Methyl L-lactate	1.958745e-001
A1754	N,N-Dimethylhydrazine	1.927070e-001
A8920	Perrhenic acid solution	1.895502e-001
A3222	Potassium nitrite	1.883124e-001
A5382	3-Methoxypropionic acid	1.865795e-001
A1928	Ammonium sulfate	1.859688e-001
A6025	2-Nitrothiophene	1.839026e-001
A8580	Sodium permanganate solution	1.835159e-001
A13929	N-(3-Aminophenyl)propanamide	1.834465e-001
A5451	3-Methoxyphenethyl alcohol	1.828786e-001
A5355	3-Methoxyphenylacetone	1.827071e-001
A7815	3-Methoxybenzyl alcohol	1.821896e-001
A1767	3,5-Dichlorophenol	1.821170e-001
A7645	3-Methoxybenzylamine	1.802086e-001
A8699	3-Methoxyphenyl isocyanate	1.802009e-001
A5327	3-Methyldiphenylamine	1.801089e-001
A6992	3-Aminobenzamide	1.800756e-001
A7457	3-Methoxyphenethylamine	1.797682e-001
A8191	3-Methoxyphenol	1.794184e-001
A14117	Clomiphene citrate salt	1.791616e-001
A4816	1-Fluoro-3,5-dimethoxybenzene	1.784990e-001
A11294	3-(3-Methoxyphenyl)propionic acid	1.781016e-001
A2017	Isopropylamine	1.780049e-001
A8696	3-Methoxybenzoyl chloride	1.776911e-001
A5306	m-Anisaldehyde	1.776064e-001
A7435	3',5'-Dihydroxyacetophenone	1.775849e-001
A1702	Resorcinol diglycidyl ether	1.773623e-001
A15973	Silver azide	1.773137e-001
A13501	Methylamine hydrochloride	1.764607e-001
A0879	trans,trans-2,4-Hexadienoic acid potassium salt	1.759826e-001
A9694	3-Chlorobenzylamine	1.751129e-001
A8038	3,5-Dichlorophenyl isocyanate	1.743011e-001
A8842	(+/-)-2-Phenyl-1-propanol	1.743011e-001
A9406	3-Chlorophenyl isocyanate	1.742860e-001
A2155	Ammonium carbamate	1.742737e-001
A11303	3,5-Dimethoxytoluene	1.735005e-001
A4002	(3-Chlorophenyl)acetonitrile	1.733385e-001
A8044	3-Isopropoxyaniline	1.732145e-001
A13631	(S)-3-Phenylbutyric acid	1.727286e-001
A9003	trans-2-Methyl-3-phenyl-2-propen-1-ol	1.723531e-001
A5731	3,5-Dimethoxybenzylamine	1.723461e-001
A6247	3,5-Dimethoxybenzyl alcohol	1.722044e-001
A7769	Orcinol	1.721431e-001
A3848	2,2':6',2''-Terpyridine	1.720307e-001
A7465	3-Phenylbutyraldehyde	1.717824e-001
A0398	Ammonium nitrate	1.716547e-001
A2785	Hydroxylamine hydrochloride	1.712462e-001
A7805	Ethyl 3-pyridylacetate	1.710788e-001
A0410	Sodium sulfate	1.710606e-001
A15809	Methylamine (40 wt% in water)	1.709372e-001
A6153	Benzyl carbamate	1.708758e-001
A0464	Benzyl alcohol	1.708298e-001
A0040	Silver nitrate	1.702821e-001
A1239	3-(Ethylamino)toluene	1.700705e-001
A0801	3-Phenoxybenzaldehyde	1.700234e-001
A2322	Silver sulfate	1.700143e-001
A0001	Polystyrene	1.699762e-001
A2539	Detergent	1.698997e-001
A8120	m-Tolyl isocyanate	1.698918e-001
A2789	Ammonium carbonate	1.693858e-001
A3616	Beryllium sulfate tetrahydrate	1.693342e-001
A8957	Diphenyl sulfide	1.692611e-001
A10284	Iodomethane	1.689771e-001
A2863	Streptomycin sulfate salt	1.687823e-001
A13172	Manganese(II) nitrate tetrahydrate	1.682894e-001
A11317	Ethyl 3-isocyanatobenzoate	1.681775e-001
A6564	3,5-Dimethoxyphenol	1.681296e-001
A11334	3,5-Dimethoxyphenyl isocyanate	1.676971e-001
A2402	Gentamicin sulfate salt	1.672809e-001
A10417	3-[3-(Trifluoromethyl)phenoxy]benzaldehyde	1.668983e-001
A11657	3-Iodophenyl isocyanate	1.666556e-001
A11636	1-(3-Methoxyphenyl)piperazine	1.659091e-001
A5361	3-Methoxy-N,N-dimethylbenzylamine	1.655590e-001
A9002	3-Methoxythiophenol	1.637758e-001
spectrum 2048
-97.100060 44634.000000
-94.473190 44634.000000
-91.848198 45458.000000
-89.225098 45590.000000
-86.603867 46538.000000
-83.984535 46364.000000
-81.367065 46655.000000
-78.751472 46460.000000
-76.137756 46721.000000
-73.525917 47275.000000
-70.915939 47028.000000
-68.307846 47182.000000
-65.701599 47231.000000
-63.097229 47210.000000
-60.494720 47127.000000
-57.894066 47635.000000
-55.295273 47093.000000
-52.698338 46414.000000
-50.103256 46796.000000
-47.510029 46687.000000
-44.918652 46914.000000
-42.329121 46485.000000
-39.741432 47308.000000
-37.155594 47113.000000
-34.571598 46734.000000
-31.989439 47468.000000
-29.409126 46823.000000
-26.830641 47460.000000
-24.253998 46986.000000
-21.679180 46773.000000
-19.106203 46664.000000
-16.535046 46601.000000
-13.965721 46265.000000
-11.398223 45165.000000
-8.832543 46678.000000
-6.268690 46283.000000
-3.706649 46651.000000
-1.146433 46629.000000
1.411975 46245.000000
3.968562 45100.000000
6.523344 44922.000000
9.076309 44790.000000
11.627474 43066.000000
14.176826 41842.000000
16.724380 39887.000000
19.270124 39276.000000
21.814075 37803.000000
24.356222 34137.000000
26.896572 31029.000000
29.435137 28459.000000
31.971905 23985.000000
34.506870 16486.000000
37.040058 10405.000000
39.571465 7335.000000
42.101078 6819.000000
44.628895 6785.000000
47.154953 6280.000000
49.679222 5270.000000
52.201721 4562.000000
54.722424 4182.000000
57.241371 4309.000000
59.758545 5043.000000
62.273941 6621.000000
64.787560 8080.000000
67.299423 7819.000000
69.809540 5779.000000
72.317863 3834.000000
74.824432 2757.000000
77.329254 2401.000000
79.832321 1971.000000
82.333611 1753.000000
84.833160 1728.000000
87.330956 1610.000000
89.827019 1766.000000
92.321304 2045.000000
94.813850 2315.000000
97.304680 2344.000000
99.793739 1976.000000
102.281052 1536.000000
104.766640 1357.000000
107.250488 1237.000000
109.732590 1176.000000
112.212967 1035.000000
114.691620 833.000000
117.168549 814.000000
119.643723 914.000000
122.117188 868.000000
124.588921 839.000000
127.058945 926.000000
129.527222 909.000000
131.993820 824.000000
134.458664 852.000000
136.921814 934.000000
139.383224 1045.000000
141.842941 993.000000
144.300934 1205.000000
146.757233 1199.000000
149.211823 1291.000000
151.664688 1457.000000
154.115875 1626.000000
156.565369 1854.000000
159.013138 2035.000000
161.459198 2350.000000
163.903580 2514.000000
166.346283 2924.000000
168.787292 2983.000000
171.226593 3042.000000
173.664185 3221.000000
176.100143 3132.000000
178.534363 3076.000000
180.966904 3179.000000
183.397797 3068.000000
185.826965 3083.000000
188.254486 2929.000000
190.680328 2941.000000
193.104492 2959.000000
195.526993 2807.000000
197.947800 2837.000000
200.366943 2946.000000
202.784424 2942.000000
205.200211 2954.000000
207.614349 2949.000000
210.026855 3105.000000
212.437683 3121.000000
214.846832 3343.000000
217.254349 3421.000000
219.660156 3606.000000
222.064377 3697.000000
224.466888 3657.000000
226.867783 3686.000000
229.267029 3706.000000
231.664612 3847.000000
234.060532 3765.000000
236.454834 3686.000000
238.847473 3755.000000
241.238495 3700.000000
243.627853 3626.000000
246.015594 3582.000000
248.401688 3515.000000
250.786148 3329.000000
253.168961 3267.000000
255.550201 3236.000000
257.929718 3316.000000
260.307678 3117.000000
262.683960 3186.000000
265.058685 3086.000000
267.431763 2888.000000
269.803192 3055.000000
272.172974 2869.000000
274.541199 2863.000000
276.907776 2744.000000
279.272766 2739.000000
281.636139 2702.000000
283.997864 2743.000000
286.358002 2607.000000
288.716522 2492.000000
291.073456 2558.000000
293.428772 2524.000000
295.782501 2450.000000
298.134583 2423.000000
300.485107 2388.000000
302.834045 2416.000000
305.181335 2343.000000
307.527100 2331.000000
309.871185 2265.000000
312.213745 2192.000000
314.554688 2199.000000
316.894012 2269.000000
319.231781 2317.000000
321.567993 2309.000000
323.902557 2225.000000
326.235565 2213.000000
328.567017 2214.000000
330.896881 2102.000000
333.225159 2150.000000
335.551819 2162.000000
337.876984 2071.000000
340.200531 2064.000000
342.522522 2167.000000
344.842957 2080.000000
347.161774 2032.000000
349.479034 1947.000000
351.794769 1988.000000
354.108917 1930.000000
356.421478 2036.000000
358.732483 2032.000000
361.041962 1922.000000
363.349915 1963.000000
365.656250 1941.000000
367.960999 2021.000000
370.264282 1999.000000
372.565948 1948.000000
374.866119 1998.000000
377.164734 2066.000000
379.461792 1967.000000
381.757294 2013.000000
384.051270 2035.000000
386.343658 1985.000000
388.634552 2057.000000
390.923920 1929.000000
393.211700 2205.000000
395.497955 2242.000000
397.782715 2389.000000
400.065857 2358.000000
402.347565 2346.000000
404.627747 2077.000000
406.906342 2221.000000
409.183411 2130.000000
411.458954 2017.000000
413.732971 2057.000000
416.005554 1982.000000
418.276520 2013.000000
420.545990 2052.000000
422.813965 2071.000000
425.080383 1982.000000
427.345306 1801.000000
429.608765 1937.000000
431.870636 1936.000000
434.131042 1871.000000
436.389893 1916.000000
438.647278 1889.000000
440.903168 1874.000000
443.157562 1911.000000
445.410431 1834.000000
447.661743 1873.000000
449.911652 1934.000000
452.159973 1928.000000
454.406860 1862.000000
456.652283 1876.000000
458.896149 1882.000000
461.138519 1837.000000
463.379395 1961.000000
465.618866 1736.000000
467.856750 1784.000000
470.093201 1744.000000
472.328125 1754.000000
474.561584 1681.000000
476.793610 1748.000000
479.024109 1741.000000
481.253113 1717.000000
483.480652 1695.000000
485.706696 1638.000000
487.931305 1717.000000
490.154449 1726.000000
492.376129 1646.000000
494.596252 1610.000000
496.814972 1744.000000
499.032196 1797.000000
501.248047 1772.000000
503.462280 1637.000000
505.675201 1687.000000
507.886536 1612.000000
510.096436 1617.000000
512.304932 1679.000000
514.512024 1670.000000
516.717529 1686.000000
518.921631 1688.000000
521.124207 1758.000000
523.325378 1698.000000
525.525208 1800.000000
527.723511 1760.000000
529.920288 1689.000000
532.115723 1716.000000
534.309631 1669.000000
536.502197 1712.000000
538.693237 1579.000000
540.882874 1565.000000
543.071106 1577.000000
545.257813 1575.000000
547.443054 1515.000000
549.627014 1549.000000
551.809387 1407.000000
553.990417 1482.000000
556.169922 1461.000000
558.348145 1522.000000
560.524841 1309.000000
562.700134 1499.000000
564.874023 1391.000000
567.046448 1414.000000
569.217468 1405.000000
571.387024 1355.000000
573.555298 1470.000000
575.722046 1355.000000
577.887329 1391.000000
580.051208 1470.000000
582.213806 1427.000000
584.374878 1472.000000
586.534546 1410.000000
588.692871 1398.000000
590.849670 1464.000000
593.005127 1361.000000
595.159180 1315.000000
597.311890 1383.000000
599.463074 1432.000000
601.612915 1472.000000
603.761414 1358.000000
605.908325 1449.000000
608.054016 1494.000000
610.198303 1455.000000
612.341125 1711.000000
614.482483 1499.000000
616.622620 1322.000000
618.761230 1488.000000
620.898560 1325.000000
623.034424 1381.000000
625.168884 1419.000000
627.301880 1393.000000
629.433716 1392.000000
631.564087 1386.000000
633.693054 1383.000000
635.820557 1349.000000
637.946777 1386.000000
640.071472 1261.000000
642.194946 1319.000000
644.317078 1334.000000
646.437744 1334.000000
648.557068 1264.000000
650.674988 1319.000000
652.791565 1190.000000
654.906738 1236.000000
657.020569 1317.000000
659.132935 1315.000000
661.244080 1330.000000
663.353821 1272.000000
665.462097 1148.000000
667.569214 1313.000000
669.674866 1266.000000
671.779053 1316.000000
673.882019 1344.000000
675.983582 1259.000000
678.083801 1295.000000
680.182617 1333.000000
682.280090 1313.000000
684.376282 1239.000000
686.471008 1270.000000
688.564514 1210.000000
690.656677 1277.000000
692.747314 1251.000000
694.836731 1271.000000
696.924866 1265.000000
699.011536 1311.000000
701.096985 1247.000000
703.180908 1290.000000
705.263611 1333.000000
707.345032 1311.000000
709.424988 1223.000000
711.503723 1242.000000
713.580994 1193.000000
715.656982 1229.000000
717.731689 1194.000000
719.805115 1310.000000
721.877014 1219.000000
723.947754 1290.000000
726.017151 1218.000000
728.085144 1172.000000
730.151794 1121.000000
732.217224 1277.000000
734.281311 1245.000000
736.344055 1156.000000
738.405457 1263.000000
740.465576 1197.000000
742.524292 1143.000000
744.581787 1254.000000
746.638000 1276.000000
748.692810 1226.000000
750.746338 1171.000000
752.798462 1185.000000
754.849365 1156.000000
756.899048 1200.000000
758.947266 1176.000000
760.994263 1099.000000
763.039978 1102.000000
765.084290 1179.000000
767.127319 1204.000000
769.169128 1080.000000
771.209595 1159.000000
773.248657 1093.000000
775.286560 1246.000000
777.323120 1195.000000
779.358459 1237.000000
781.392456 1129.000000
783.425049 1198.000000
785.456482 1244.000000
787.486511 1283.000000
789.515259 1113.000000
791.542847 1221.000000
793.569092 1180.000000
795.593933 1209.000000
797.617676 1319.000000
799.640015 1210.000000
801.661133 1334.000000
803.680908 1376.000000
805.699402 1526.000000
807.716675 1526.000000
809.732544 1792.000000
811.747253 1613.000000
813.760620 1460.000000
815.772766 1311.000000
817.783691 1323.000000
819.793274 1212.000000
821.801636 1246.000000
823.808594 1144.000000
825.814331 1166.000000
827.818848 1219.000000
829.822083 1151.000000
831.824036 1199.000000
833.824707 1237.000000
835.824158 1303.000000
837.822266 1366.000000
839.819275 1498.000000
841.814880 1470.000000
843.809326 1426.000000
845.802429 1293.000000
847.794312 1277.000000
849.784851 1160.000000
851.774109 1107.000000
853.762329 1107.000000
855.749146 1082.000000
857.734741 1059.000000
859.719055 1071.000000
861.702271 1021.000000
863.684082 1011.000000
865.664673 1028.000000
867.643982 1010.000000
869.622131 1049.000000
871.598938 1022.000000
873.574463 1006.000000
875.548950 1031.000000
877.521973 1003.000000
879.493958 1003.000000
881.464600 1008.000000
883.434082 988.000000
885.402222 1050.000000
887.369202 1070.000000
889.334839 1086.000000
891.299316 1028.000000
893.262573 964.000000
895.224609 1079.000000
897.185364 1135.000000
899.144897 964.000000
901.103149 948.000000
903.060303 944.000000
905.016296 1038.000000
906.970886 1075.000000
908.924255 1035.000000
910.876465 963.000000
912.827454 904.000000
914.777161 855.000000
916.725708 913.000000
918.673035 821.000000
920.619080 863.000000
922.563843 921.000000
924.507568 822.000000
926.450134 886.000000
928.391418 810.000000
930.331360 838.000000
932.270203 898.000000
934.207764 820.000000
936.144104 840.000000
938.079285 864.000000
940.013184 840.000000
941.945984 936.000000
943.877563 883.000000
945.807983 879.000000
947.737183 804.000000
949.665039 907.000000
951.591858 803.000000
953.517395 822.000000
955.441650 870.000000
957.364807 768.000000
959.286804 793.000000
961.207520 810.000000
963.127075 767.000000
965.045471 816.000000
966.962830 857.000000
968.878723 846.000000
970.793518 1005.000000
972.707092 915.000000
974.619507 992.000000
976.530701 1003.000000
978.440735 949.000000
980.349487 870.000000
982.257202 841.000000
984.163696 743.000000
986.068970 750.000000
987.973145 853.000000
989.876099 789.000000
991.777832 825.000000
993.678406 1042.000000
995.577820 873.000000
997.476013 878.000000
999.373047 929.000000
1001.268860 863.000000
1003.163513 832.000000
1005.057068 757.000000
1006.949341 780.000000
1008.840698 698.000000
1010.730713 742.000000
1012.619507 720.000000
1014.507141 719.000000
1016.393616 708.000000
1018.278931 711.000000
1020.163086 696.000000
1022.046021 692.000000
1023.927917 682.000000
1025.808472 653.000000
1027.687988 738.000000
1029.566528 721.000000
1031.443726 772.000000
1033.319580 772.000000
1035.194458 826.000000
1037.068359 767.000000
1038.940796 855.000000
1040.812256 780.000000
1042.682373 800.000000
1044.551514 805.000000
1046.419434 835.000000
1048.286255 657.000000
1050.151978 751.000000
1052.016479 684.000000
1053.879883 763.000000
1055.741943 733.000000
1057.603027 670.000000
1059.463013 681.000000
1061.321655 784.000000
1063.179199 766.000000
1065.035645 638.000000
1066.890991 724.000000
1068.745117 750.000000
1070.598389 752.000000
1072.450195 703.000000
1074.301025 824.000000
1076.150635 691.000000
1077.999023 721.000000
1079.846558 696.000000
1081.692749 839.000000
1083.537720 764.000000
1085.381836 697.000000
1087.224609 661.000000
1089.066162 672.000000
1090.906982 694.000000
1092.746216 728.000000
1094.584717 685.000000
1096.421875 683.000000
1098.257813 660.000000
1100.092773 640.000000
1101.926514 700.000000
1103.759277 654.000000
1105.590698 727.000000
1107.421265 668.000000
1109.250488 748.000000
1111.078735 653.000000
1112.905762 656.000000
1114.731812 706.000000
1116.556641 711.000000
1118.380371 581.000000
1120.202881 690.000000
1122.024292 716.000000
1123.844849 620.000000
1125.663940 678.000000
1127.482178 611.000000
1129.299072 560.000000
1131.115112 685.000000
1132.929932 668.000000
1134.743652 660.000000
1136.556274 685.000000
1138.367676 624.000000
1140.178101 675.000000
1141.987427 720.000000
1143.795410 804.000000
1145.602661 833.000000
1147.408447 840.000000
1149.213379 930.000000
1151.017212 956.000000
1152.819824 1004.000000
1154.621582 1034.000000
1156.421875 771.000000
1158.221191 952.000000
1160.019531 832.000000
1161.816528 892.000000
1163.612793 835.000000
1165.407715 850.000000
1167.201538 908.000000
1168.994507 803.000000
1170.786133 636.000000
1172.576782 835.000000
1174.366455 821.000000
1176.154663 635.000000
1177.942017 841.000000
1179.728271 707.000000
1181.513428 698.000000
1183.297485 717.000000
1185.080444 754.000000
1186.862427 698.000000
1188.643188 653.000000
1190.422974 761.000000
1192.201660 670.000000
1193.979370 673.000000
1195.755859 675.000000
1197.531250 650.000000
1199.305542 627.000000
1201.078735 544.000000
1202.851074 694.000000
1204.622070 727.000000
1206.392212 660.000000
1208.161133 693.000000
1209.928955 625.000000
1211.695923 660.000000
1213.461548 698.000000
1215.226196 723.000000
1216.989746 695.000000
1218.752197 855.000000
1220.513794 700.000000
1222.274170 884.000000
1224.033447 694.000000
1225.791870 706.000000
1227.549072 647.000000
1229.305176 624.000000
1231.060181 660.000000
1232.814331 624.000000
1234.567139 665.000000
1236.318970 690.000000
1238.069946 559.000000
1239.819580 708.000000
1241.568359 672.000000
1243.315796 718.000000
1245.062500 660.000000
1246.807983 686.000000
1248.552612 639.000000
1250.295898 752.000000
1252.038208 721.000000
1253.779419 816.000000
1255.519775 728.000000
1257.259033 751.000000
1258.997070 561.000000
1260.734253 573.000000
1262.470215 560.000000
1264.205200 669.000000
1265.939209 699.000000
1267.672241 738.000000
1269.404053 715.000000
1271.134888 776.000000
1272.864502 810.000000
1274.593262 793.000000
1276.320923 764.000000
1278.047485 765.000000
1279.773193 739.000000
1281.497559 781.000000
1283.221069 751.000000
1284.943604 753.000000
1286.665161 753.000000
1288.385498 769.000000
1290.104858 673.000000
1291.823120 814.000000
1293.540405 803.000000
1295.256714 770.000000
1296.971802 818.000000
1298.685913 817.000000
1300.399048 755.000000
1302.111328 897.000000
1303.822388 840.000000
1305.532471 831.000000
1307.241455 758.000000
1308.949219 739.000000
1310.656372 775.000000
1312.362061 783.000000
1314.067017 819.000000
1315.770996 779.000000
1317.473755 838.000000
1319.175537 889.000000
1320.876465 830.000000
1322.576050 1485.000000
1324.274780 318.000000
1325.972778 1017.000000
1327.669434 1006.000000
1329.364990 1093.000000
1331.059692 1050.000000
1332.753174 1117.000000
1334.445801 1055.000000
1336.137573 1059.000000
1337.828003 693.000000
1339.517700 795.000000
1341.206299 826.000000
1342.893799 878.000000
1344.580322 822.000000
1346.265747 850.000000
1347.950195 785.000000
1349.633789 768.000000
1351.316162 801.000000
1352.997559 824.000000
1354.678101 909.000000
1356.357422 918.000000
1358.036133 913.000000
1359.713501 839.000000
1361.389771 887.000000
1363.065063 963.000000
1364.739624 912.000000
1366.412964 955.000000
1368.085327 862.000000
1369.756714 862.000000
1371.427124 918.000000
1373.096436 908.000000
1374.764771 819.000000
1376.432251 801.000000
1378.098633 873.000000
1379.764038 892.000000
1381.428467 780.000000
1383.091675 759.000000
1384.754272 814.000000
1386.415527 834.000000
1388.075928 817.000000
1389.735229 717.000000
1391.393555 658.000000
1393.051147 772.000000
1394.707520 743.000000
1396.363037 767.000000
1398.017334 742.000000
1399.670776 752.000000
1401.323120 820.000000
1402.974731 793.000000
1404.625122 749.000000
1406.274414 704.000000
1407.922974 724.000000
1409.570435 599.000000
1411.216919 762.000000
1412.862549 630.000000
1414.507202 637.000000
1416.150635 759.000000
1417.793213 749.000000
1419.434692 696.000000
1421.075317 749.000000
1422.714966 691.000000
1424.353516 803.000000
1425.991211 693.000000
1427.627808 631.000000
1429.263428 710.000000
1430.898315 626.000000
1432.532104 705.000000
1434.164795 774.000000
1435.796509 779.000000
1437.427368 672.000000
1439.057129 796.000000
1440.685791 917.000000
1442.313843 700.000000
1443.940796 793.000000
1445.566528 744.000000
1447.191650 800.000000
1448.815674 767.000000
1450.438721 887.000000
1452.060791 918.000000
1453.681763 887.000000
1455.301758 1008.000000
1456.921021 975.000000
1458.538940 1058.000000
1460.156250 1260.000000
1461.772583 1034.000000
1463.387695 1029.000000
1465.001953 1005.000000
1466.615356 959.000000
1468.227661 832.000000
1469.839111 711.000000
1471.449707 763.000000
1473.059082 695.000000
1474.667480 585.000000
1476.275024 688.000000
1477.881592 709.000000
1479.487427 725.000000
1481.092041 673.000000
1482.695801 671.000000
1484.298340 616.000000
1485.900269 609.000000
1487.500977 663.000000
1489.100952 627.000000
1490.699829 598.000000
1492.297852 571.000000
1493.894775 662.000000
1495.490845 714.000000
1497.085938 706.000000
1498.680054 636.000000
1500.273438 462.000000
1501.865723 700.000000
1503.456787 607.000000
1505.047363 719.000000
1506.636597 629.000000
1508.225220 657.000000
1509.812744 608.000000
1511.399170 662.000000
1512.984863 742.000000
1514.569458 565.000000
1516.153198 670.000000
1517.735840 599.000000
1519.317749 632.000000
1520.898560 599.000000
1522.478638 494.000000
1524.057495 668.000000
1525.635498 658.000000
1527.212769 663.000000
1528.788818 667.000000
1530.364136 508.000000
1531.938354 552.000000
1533.511841 623.000000
1535.084106 646.000000
1536.655640 582.000000
1538.226196 589.000000
1539.795898 576.000000
1541.364380 610.000000
1542.932129 528.000000
1544.499023 561.000000
1546.064697 571.000000
1547.629639 579.000000
1549.193481 589.000000
1550.756714 577.000000
1552.318604 737.000000
1553.879883 790.000000
1555.440063 707.000000
1556.999512 766.000000
1558.557861 430.000000
1560.115479 686.000000
1561.671997 596.000000
1563.227295 586.000000
1564.781982 572.000000
1566.335938 625.000000
1567.888916 703.000000
1569.440552 604.000000
1570.991455 593.000000
1572.541626 620.000000
1574.090820 582.000000
1575.638672 669.000000
1577.186035 645.000000
1578.732422 554.000000
1580.277954 559.000000
1581.822510 659.000000
1583.365845 629.000000
1584.908569 690.000000
1586.450439 620.000000
1587.991211 686.000000
1589.531006 621.000000
1591.070068 637.000000
1592.608032 636.000000
1594.145508 696.000000
1595.681641 623.000000
1597.216675 690.000000
1598.751221 666.000000
1600.284790 605.000000
1601.817505 736.000000
1603.348633 686.000000
1604.879517 644.000000
1606.409546 695.000000
1607.938354 782.000000
1609.466064 749.000000
1610.993164 611.000000
1612.519531 692.000000
1614.044922 686.000000
1615.569458 652.000000
1617.092651 674.000000
1618.615112 723.000000
1620.136841 793.000000
1621.657715 693.000000
1623.177124 667.000000
1624.696045 717.000000
1626.214233 645.000000
1627.731567 658.000000
1629.247803 670.000000
1630.762695 789.000000
1632.277100 746.000000
1633.790771 691.000000
1635.303345 661.000000
1636.814697 664.000000
1638.325684 714.000000
1639.835571 717.000000
1641.344604 698.000000
1642.852295 670.000000
1644.359619 636.000000
1645.866089 648.000000
1647.371582 683.000000
1648.876221 733.000000
1650.379395 688.000000
1651.881958 643.000000
1653.384155 687.000000
1654.885010 658.000000
1656.384766 490.000000
1657.883667 644.000000
1659.382202 569.000000
1660.879517 619.000000
1662.376099 607.000000
1663.871094 620.000000
1665.365845 589.000000
1666.859741 659.000000
1668.352661 601.000000
1669.844238 525.000000
1671.335327 616.000000
1672.825806 534.000000
1674.315186 591.000000
1675.803101 478.000000
1677.290771 553.000000
1678.777466 685.000000
1680.263306 488.000000
1681.748291 539.000000
1683.231812 553.000000
1684.715088 539.000000
1686.197510 514.000000
1687.678833 581.000000
1689.158691 482.000000
1690.638306 429.000000
1692.117188 545.000000
1693.595093 288.000000
1695.072021 647.000000
1696.547729 496.000000
1698.023071 419.000000
1699.497192 426.000000
1700.970703 540.000000
1702.442749 522.000000
1703.914551 423.000000
1705.385376 509.000000
1706.855347 503.000000
1708.323975 551.000000
1709.792114 465.000000
1711.259521 450.000000
1712.725830 525.000000
1714.191528 510.000000
1715.655518 453.000000
1717.119385 393.000000
1718.582397 455.000000
1720.044434 442.000000
1721.505249 476.000000
1722.965454 409.000000
1724.424927 433.000000
1725.883545 418.000000
1727.341187 384.000000
1728.797485 392.000000
1730.253540 418.000000
1731.708618 395.000000
1733.162720 428.000000
1734.615601 505.000000
1736.068237 483.000000
1737.519775 284.000000
1738.970581 483.000000
1740.420410 400.000000
1741.868896 393.000000
1743.317017 414.000000
1744.764282 355.000000
1746.210815 442.000000
1747.655762 412.000000
1749.100464 462.000000
1750.544312 452.000000
1751.987305 509.000000
1753.428833 351.000000
1754.870117 435.000000
1756.310547 317.000000
1757.750000 381.000000
1759.188477 366.000000
1760.625977 354.000000
1762.062988 355.000000
1763.499023 310.000000
1764.934204 386.000000
1766.367920 433.000000
1767.801514 349.000000
1769.234131 358.000000
1770.665894 356.000000
1772.096802 392.000000
1773.526489 390.000000
1774.955444 475.000000
1776.383911 356.000000
1777.811401 293.000000
1779.237549 247.000000
1780.663452 385.000000
1782.088257 233.000000
1783.512451 235.000000
1784.935181 263.000000
1786.357422 329.000000
1787.778931 326.000000
1789.199707 298.000000
1790.619507 270.000000
1792.037964 367.000000
1793.455933 245.000000
1794.873291 256.000000
1796.289795 323.000000
1797.704834 296.000000
1799.119507 250.000000
1800.533569 399.000000
1801.946411 295.000000
1803.358643 371.000000
1804.769531 287.000000
1806.179932 347.000000
1807.589600 401.000000
1808.998291 367.000000
1810.405884 338.000000
1811.812988 363.000000
1813.219238 370.000000
1814.624512 323.000000
1816.028687 330.000000
1817.432495 267.000000
1818.835327 318.000000
1820.237305 393.000000
1821.638672 330.000000
1823.038574 248.000000
1824.437866 321.000000
1825.836670 360.000000
1827.234619 257.000000
1828.631226 304.000000
1830.027222 328.000000
1831.422485 214.000000
1832.817139 264.000000
1834.210815 306.000000
1835.603149 329.000000
1836.994995 233.000000
1838.386230 281.000000
1839.776489 300.000000
1841.165527 304.000000
1842.554199 250.000000
1843.941895 333.000000
1845.328857 366.000000
1846.714478 283.000000
1848.099854 391.000000
1849.484375 285.000000
1850.868164 265.000000
1852.250854 328.000000
1853.632324 325.000000
1855.013306 258.000000
1856.393799 382.000000
1857.773315 299.000000
1859.151367 253.000000
1860.529297 158.000000
1861.906250 268.000000
1863.282471 257.000000
1864.657837 322.000000
1866.031738 234.000000
1867.405518 235.000000
1868.778442 340.000000
1870.150269 361.000000
1871.521118 276.000000
1872.891602 301.000000
1874.260986 251.000000
1875.629883 272.000000
1876.997192 277.000000
1878.364380 184.000000
1879.730591 282.000000
1881.096069 262.000000
1882.460815 265.000000
1883.823975 243.000000
1885.187012 275.000000
1886.549194 285.000000
1887.910522 248.000000
1889.270508 211.000000
1890.630127 187.000000
1891.989136 185.000000
1893.347168 286.000000
1894.704346 245.000000
1896.060303 315.000000
1897.416016 179.000000
1898.770752 247.000000
1900.124634 243.000000
1901.477417 210.000000
1902.829712 219.000000
1904.181274 262.000000
1905.531982 226.000000
1906.881470 218.000000
1908.230469 309.000000
1909.578613 190.000000
1910.926147 239.000000
1912.272949 187.000000
1913.618164 356.000000
1914.963135 293.000000
1916.307373 224.000000
1917.650757 227.000000
1918.992798 278.000000
1920.334595 171.000000
1921.675537 213.000000
1923.015747 181.000000
1924.354980 134.000000
1925.693237 252.000000
1927.030884 235.000000
1928.367798 265.000000
1929.703857 163.000000
1931.038696 228.000000
1932.373169 380.000000
1933.706909 270.000000
1935.039795 206.000000
1936.371216 241.000000
1937.702759 320.000000
1939.032959 344.000000
1940.362671 199.000000
1941.691528 239.000000
1943.019165 118.000000
1944.346313 248.000000
1945.672729 204.000000
1946.998413 262.000000
1948.322754 217.000000
1949.646851 248.000000
1950.970093 243.000000
1952.292603 243.000000
1953.614014 245.000000
1954.934448 242.000000
1956.254272 324.000000
1957.573730 249.000000
1958.892212 234.000000
1960.209351 157.000000
1961.526123 284.000000
1962.842163 217.000000
1964.157471 213.000000
1965.471313 176.000000
1966.784912 241.000000
1968.097778 193.000000
1969.409790 235.000000
1970.721191 191.000000
1972.031250 171.000000
1973.340820 130.000000
1974.649658 198.000000
1975.957886 231.000000
1977.264771 210.000000
1978.571045 242.000000
1979.876953 271.000000
1981.181641 217.000000
1982.485840 146.000000
1983.788818 164.000000
1985.091431 176.000000
1986.393066 231.000000
1987.694092 182.000000
1988.993530 144.000000
1990.293091 148.000000
1991.591553 192.000000
1992.889526 169.000000
1994.185913 264.000000
1995.482300 245.000000
1996.777710 240.000000
1998.072388 184.000000
1999.366211 258.000000
2000.658813 201.000000
2001.950928 275.000000
2003.242554 171.000000
2004.533447 172.000000
2005.822754 95.000000
2007.111816 155.000000
2008.400146 129.000000
2009.687744 163.000000
2010.974487 215.000000
2012.260132 206.000000
2013.545410 174.000000
2014.829712 245.000000
2016.113403 218.000000
2017.395752 190.000000
2018.677734 224.000000
2019.959229 220.000000
2021.239746 222.000000
2022.519531 160.000000
2023.798218 204.000000
2025.076172 177.000000
2026.353638 208.000000
2027.630493 193.000000
2028.905640 201.000000
2030.180908 248.000000
2031.455200 145.000000
2032.728516 164.000000
2034.000977 185.000000
2035.273071 266.000000
2036.544067 228.000000
2037.814819 142.000000
2039.084229 129.000000
2040.352539 231.000000
2041.620850 137.000000
2042.888184 204.000000
2044.154785 193.000000
2045.420166 107.000000
2046.684937 129.000000
2047.949463 151.000000
2049.212891 183.000000
2050.475830 189.000000
2051.736816 151.000000
2052.998291 223.000000
2054.258545 101.000000
2055.518066 107.000000
2056.776855 226.000000
2058.034668 67.000000
2059.291992 214.000000
2060.548584 195.000000
2061.803711 161.000000
2063.058838 111.000000
2064.312988 211.000000
2065.566406 120.000000
2066.819092 137.000000
2068.070557 253.000000
2069.321777 186.000000
2070.572266 186.000000
2071.822021 156.000000
2073.070313 431.000000
2074.318604 162.000000
2075.565918 183.000000
2076.812500 204.000000
2078.058350 197.000000
2079.302979 158.000000
2080.547119 211.000000
2081.790771 206.000000
2083.033447 207.000000
2084.274902 110.000000
2085.516113 113.000000
2086.756836 230.000000
2087.996582 180.000000
2089.235107 90.000000
2090.473145 152.000000
2091.710449 125.000000
2092.947510 163.000000
2094.183105 241.000000
2095.417969 192.000000
2096.652588 127.000000
2097.886230 186.000000
2099.118896 135.000000
2100.350830 145.000000
2101.582275 232.000000
2102.812744 245.000000
2104.042480 168.000000
2105.271973 126.000000
2106.499512 98.000000
2107.727295 148.000000
2108.954346 139.000000
2110.180420 172.000000
2111.405029 121.000000
2112.629883 127.000000
2113.853516 201.000000
2115.076660 245.000000
2116.298584 52.000000
2117.520264 61.000000
2118.740967 107.000000
2119.960938 190.000000
2121.180420 159.000000
2122.398438 176.000000
2123.616455 151.000000
2124.833496 258.000000
2126.050049 180.000000
2127.264893 202.000000
2128.479980 188.000000
2129.694092 127.000000
2130.907471 113.000000
2132.120117 256.000000
2133.331299 152.000000
2134.542725 91.000000
2135.752930 210.000000
2136.962646 170.000000
2138.170898 233.000000
2139.379150 187.000000
2140.586670 170.000000
2141.792969 -76.000000
2142.998535 180.000000
2144.203857 167.000000
2145.408203 101.000000
2146.611816 204.000000
2147.814941 152.000000
2149.016602 168.000000
2150.218018 38.000000
2151.418701 193.000000
2152.618652 152.000000
2153.817383 153.000000
2155.015869 163.000000
2156.213867 168.000000
2157.410889 133.000000
2158.607178 141.000000
2159.802246 119.000000
2160.997070 126.000000
2162.191162 191.000000
2163.384277 161.000000
2164.576416 211.000000
2165.768311 43.000000
2166.959473 137.000000
2168.149658 142.000000
2169.339111 162.000000
2170.528076 115.000000
2171.716064 46.000000
2172.903809 190.000000
2174.090088 72.000000
2175.275635 147.000000
2176.460938 114.000000
2177.645752 116.000000
2178.829346 157.000000
2180.012207 176.000000
2181.194092 143.000000
2182.375732 69.000000
2183.556885 161.000000
2184.736816 134.000000
2185.915771 113.000000
2187.094238 146.000000
2188.272461 137.000000
2189.449463 190.000000
2190.625488 164.000000
2191.801270 154.000000
2192.976563 207.000000
2194.150391 79.000000
2195.323730 149.000000
2196.496826 100.000000
2197.668701 197.000000
2198.840088 93.000000
2200.010986 185.000000
2201.180176 191.000000
2202.349365 173.000000
2203.518066 117.000000
2204.685791 138.000000
2205.852539 39.000000
2207.018555 219.000000
2208.184082 73.000000
2209.349365 127.000000
2210.513184 124.000000
2211.676514 142.000000
2212.838623 166.000000
2214.000977 102.000000
2215.162109 177.000000
2216.322266 156.000000
2217.481934 89.000000
2218.641357 175.000000
2219.799561 92.000000
2220.956787 127.000000
2222.113770 216.000000
2223.270020 45.000000
2224.425537 94.000000
2225.580322 80.000000
2226.734131 94.000000
2227.886963 139.000000
2229.040283 203.000000
2230.191650 115.000000
2231.342773 156.000000
2232.493164 36.000000
2233.643066 27.000000
2234.791992 177.000000
2235.940430 105.000000
2237.087402 132.000000
2238.234619 100.000000
2239.380615 117.000000
2240.526367 118.000000
2241.670410 90.000000
2242.814697 173.000000
2243.958008 135.000000
2245.100586 202.000000
2246.242188 112.000000
2247.383545 132.000000
2248.523926 74.000000
2249.663574 171.000000
2250.802734 92.000000
2251.940674 145.000000
2253.078613 33.000000
2254.215576 92.000000
2255.351807 129.000000
2256.487061 204.000000
2257.621582 37.000000
2258.755859 114.000000
2259.889648 68.000000
2261.021973 139.000000
2262.153809 141.000000
2263.285156 77.000000
2264.415527 32.000000
2265.545654 135.000000
2266.674561 87.000000
2267.802979 35.000000
2268.930908 141.000000
2270.057861 67.000000
2271.184082 154.000000
2272.309326 94.000000
2273.434570 49.000000
2274.559082 158.000000
2275.682373 82.000000
2276.804932 33.000000
2277.927002 157.000000
2279.048584 142.000000
2280.169434 108.000000
2281.289063 52.000000
2282.408203 226.000000
2283.527100 53.000000
2284.645264 132.000000
2285.762451 105.000000
2286.878662 107.000000
2287.994629 76.000000
2289.109863 74.000000
2290.224365 92.000000
2291.337646 111.000000
2292.450928 106.000000
2293.563477 97.000000
2294.675293 84.000000
2295.786377 95.000000
2296.896240 34.000000
2298.005615 103.000000
2299.114746 -7.000000
2300.222900 72.000000
2301.330078 150.000000
2302.437012 83.000000
2303.543213 2.000000
2304.648926 159.000000
2305.753174 108.000000
2306.857178 4.000000
2307.960693 107.000000
2309.063721 152.000000
2310.165527 38.000000
2311.266602 156.000000
2312.367188 164.000000
2313.467285 119.000000
2314.566650 109.000000
2315.664551 124.000000
2316.762939 61.000000
2317.859863 -5.000000
2318.956543 13.000000
2320.052734 105.000000
2321.147217 92.000000
2322.241699 5.000000
2323.335449 118.000000
2324.428955 154.000000
2325.520752 78.000000
2326.612549 283.000000
2327.703613 134.000000
2328.793945 196.000000
2329.883301 188.000000
2330.972656 204.000000
2332.060791 199.000000
2333.148438 104.000000
2334.235840 88.000000
2335.321533 112.000000
2336.406982 112.000000
2337.492188 90.000000
2338.576416 128.000000
2339.659668 12.000000
2340.742676 83.000000
2341.824707 71.000000
2342.906494 164.000000
2343.987549 92.000000
2345.067383 68.000000
2346.146729 119.000000
2347.225586 67.000000
2348.303955 132.000000
2349.380859 60.000000
2350.457520 97.000000
2351.533936 90.000000
2352.609375 74.000000
2353.683838 104.000000
2354.758057 116.000000
2355.831543 78.000000
2356.904541 64.000000
2357.976318 -64.000000
2359.047852 43.000000
2360.118408 24.000000
2361.188721 92.000000
2362.258057 71.000000
2363.326416 56.000000
2364.394531 2.000000
2365.461914 117.000000
2366.528809 112.000000
2367.594971 -43.000000
2368.659912 140.000000
2369.724854 100.000000
2370.789063 67.000000
2371.852539 8.000000
2372.914795 97.000000
2373.977051 112.000000
2375.038330 40.000000
2376.099365 31.000000
2377.159180 33.000000
2378.218262 70.000000
2379.277344 15.000000
2380.335449 87.000000
2381.392822 134.000000
2382.449219 91.000000
2383.505371 73.000000
2384.561035 186.000000
2385.615967 58.000000
2386.669434 101.000000
2387.723145 34.000000
2388.775879 87.000000
2389.828125 117.000000
2390.879639 128.000000
2391.930176 82.000000
2392.980469 53.000000
2394.029785 -11.000000
2395.079102 38.000000
2396.126953 71.000000
2397.174316 52.000000
2398.221436 162.000000
2399.267578 70.000000
2400.312988 32.000000
2401.357666 74.000000
2402.402344 25.000000
2403.445557 139.000000
2404.488770 60.000000
2405.530518 108.000000
2406.572510 44.000000
2407.613770 62.000000
2408.654053 -15.000000
2409.693604 -15.000000
2410.732178 -36.000000
2411.770996 -31.000000
2412.808594 100.000000
2413.845947 58.000000
2414.882080 74.000000
2415.917969 117.000000
2416.953125 2.000000
2417.987793 -4.000000
2419.020996 48.000000
2420.054443 173.000000
2421.086914 38.000000
2422.119141 159.000000
2423.149902 -61.000000
2424.180664 60.000000
2425.210938 89.000000
2426.239990 21.000000
2427.269043 74.000000
2428.296387 -2.000000
2429.324219 60.000000
2430.350830 46.000000
2431.377197 90.000000
2432.402100 104.000000
2433.427246 84.000000
2434.451416 59.000000
2435.475342 -9.000000
2436.498047 144.000000
2437.520020 84.000000
2438.541748 27.000000
2439.562744 70.000000
2440.583252 70.000000
2441.602539 132.000000
2442.621826 68.000000
2443.640137 6.000000
2444.658203 96.000000
2445.674805 99.000000
2446.691406 96.000000
2447.707275 33.000000
2448.723145 16.000000
2449.737549 60.000000
2450.751221 98.000000
2451.764404 41.000000
2452.777344 98.000000
2453.789551 96.000000
2454.800781 91.000000
2455.811768 28.000000
2456.822021 90.000000
2457.831787 125.000000
2458.840576 76.000000
2459.848633 53.000000
2460.856689 48.000000
2461.863525 84.000000
2462.870117 111.000000
2463.875488 85.000000
2464.880615 126.000000
2465.885498 79.000000
2466.889160 11.000000
2467.892578 82.000000
2468.895020 95.000000
2469.897217 113.000000
2470.898926 101.000000
2471.899658 119.000000
2472.899414 96.000000
2473.899170 57.000000
2474.897949 109.000000
2475.896240 98.000000
2476.893555 58.000000
2477.890625 11.000000
2478.887695 42.000000
2479.883301 75.000000
2480.878906 39.000000
2481.872803 40.000000
2482.866699 70.000000
2483.860107 75.000000
2484.853027 71.000000
2485.844971 86.000000
2486.836182 25.000000
2487.827148 60.000000
2488.817627 37.000000
2489.807129 53.000000
2490.795898 27.000000
2491.784668 34.000000
2492.772461 71.000000
2493.759033 50.000000
2494.745605 119.000000
2495.731689 46.000000
2496.717041 23.000000
2497.701416 19.000000
2498.685547 11.000000
2499.669678 34.000000
2500.652344 139.000000
2501.634521 -25.000000
2502.616211 89.000000
2503.597168 67.000000
2504.577637 48.000000
2505.557861 106.000000
2506.536621 -35.000000
2507.515137 14.000000
2508.493164 81.000000
2509.470703 72.000000
2510.447266 4.000000
2511.423584 66.000000
2512.399170 52.000000
2513.374268 15.000000
2514.348877 29.000000
2515.322266 17.000000
2516.295410 37.000000
2517.268311 48.000000
2518.240234 61.000000
2519.211426 30.000000
2520.182129 -14.000000
2521.152588 -34.000000
2522.122314 1.000000
2523.091064 -17.000000
2524.059082 80.000000
2525.027100 52.000000
2525.994141 68.000000
2526.960938 81.000000
2527.926514 61.000000
2528.892090 -48.000000
2529.856934 83.000000
2530.821289 0.000000
2531.784424 26.000000
2532.747803 6.000000
2533.710205 44.000000
2534.672363 78.000000
2535.633301 -32.000000
2536.593506 20.000000
2537.553955 27.000000
2538.513428 47.000000
2539.472168 -11.000000
2540.429932 24.000000
2541.387939 69.000000
2542.345215 18.000000
2543.301514 -38.000000
2544.257568 153.000000
2545.212402 64.000000
2546.167480 61.000000
2547.121826 120.000000
2548.075439 56.000000
2549.028076 59.000000
2549.980469 52.000000
2550.932373 27.000000
2551.883545 52.000000
2552.833984 -72.000000
2553.783936 82.000000
2554.733643 -8.000000
2555.682617 14.000000
2556.631104 -16.000000
2557.578369 -24.000000
2558.525635 28.000000
2559.472168 104.000000
2560.418213 16.000000
2561.363281 83.000000
2562.308105 -21.000000
2563.252441 45.000000
2564.196289 9.000000
2565.139648 72.000000
2566.081543 49.000000
2567.023682 65.000000
2567.965088 15.000000
2568.905762 -29.000000
2569.845703 36.000000
2570.785645 -55.000000
2571.724609 49.000000
2572.663330 -17.000000
2573.601074 -57.000000
2574.538574 -48.000000
2575.475342 -3.000000
2576.411377 57.000000
2577.346924 -42.000000
2578.281738 -13.000000
2579.216553 21.000000
2580.150391 14.000000
2581.083740 271.000000
2582.016357 -7.000000
2582.948730 94.000000
2583.880371 43.000000
2584.811523 88.000000
2585.742188 79.000000
2586.671631 122.000000
2587.601074 51.000000
2588.530029 49.000000
2589.458740 7.000000
2590.385742 226.000000
2591.312988 40.000000
2592.239746 50.000000
2593.165771 -74.000000
2594.091553 7.000000
2595.016113 25.000000
2595.940430 9.000000
2596.864258 40.000000
2597.787598 7.000000
2598.709961 90.000000
2599.632080 -23.000000
2600.553711 -55.000000
2601.474609 67.000000
2602.394775 -14.000000
2603.314697 9.000000
2604.234131 102.000000
2605.153320 53.000000
2606.071533 -15.000000
2606.988525 -17.000000
2607.905762 87.000000
2608.822754 20.000000
2609.738770 -11.000000
2610.653564 -2.000000
2611.568848 91.000000
2612.483398 34.000000
2613.396973 12.000000
2614.310547 85.000000
2615.222900 32.000000
2616.135254 -126.000000
2617.046631 8.000000
2617.957764 15.000000
2618.868164 -47.000000
2619.778320 36.000000
2620.687744 68.000000
2621.596680 105.000000
2622.504639 -45.000000
2623.412842 49.000000
2624.320068 68.000000
2625.226807 -9.000000
2626.132813 6.000000
2627.038574 -26.000000
2627.943604 118.000000
2628.848389 -59.000000
2629.752441 -39.000000
2630.655518 1.000000
2631.558594 35.000000
2632.460693 40.000000
2633.362793 -47.000000
2634.264648 -10.000000
2635.164795 22.000000
2636.065186 19.000000
2636.964844 13.000000
2637.864258 14.000000
2638.762207 75.000000
2639.660645 3.000000
2640.558594 31.000000
2641.455811 22.000000
2642.351807 21.000000
2643.247803 179.000000
2644.143555 79.000000
2645.038574 30.000000
2645.933350 0.000000
2646.826660 61.000000
2647.719971 17.000000
2648.613037 -22.000000
2649.505859 -17.000000
2650.396973 11.000000
2651.288330 -33.000000
2652.179199 18.000000
2653.069336 124.000000
2653.959229 34.000000
2654.847900 -22.000000
2655.736816 43.000000
2656.625244 44.000000
2657.512695 -12.000000
2658.399170 -72.000000
2659.286133 -19.000000
2660.172363 -106.000000
2661.058105 -17.000000
2661.942627 32.000000
2662.827148 7.000000
2663.711426 -7.000000
2664.594971 7.000000
2665.478027 66.000000
2666.360352 -96.000000
2667.242188 21.000000
2668.123291 -30.000000
2669.004639 -37.000000
2669.884521 24.000000
2670.764648 -28.000000
2671.644043 78.000000
2672.523438 11.000000
2673.402100 39.000000
2674.279053 -36.000000
2675.156738 -35.000000
2676.033691 -17.000000
2676.909912 46.000000
2677.785645 -58.000000
2678.660645 87.000000
2679.535889 -38.000000
2680.410156 -22.000000
2681.283936 104.000000
2682.156982 32.000000
2683.029785 -31.000000
2683.902344 44.000000
2684.774170 15.000000
2685.645264 -20.000000
2686.516113 -17.000000
2687.386475 -33.000000
2688.256592 -20.000000
2689.125000 62.000000
2689.994141 -107.000000
2690.862549 -15.000000
2691.730713 18.000000
2692.598145 -63.000000
2693.464355 -103.000000
2694.331055 -55.000000
2695.196777 46.000000
2696.062500 -41.000000
2696.926758 30.000000
2697.791748 25.000000
2698.655273 11.000000
2699.519043 -16.000000
2700.381348 58.000000
2701.244141 -21.000000
2702.105957 -42.000000
2702.967285 30.000000
2703.828613 59.000000
2704.688721 61.000000
2705.548828 -74.000000
2706.408447 -12.000000
2707.267822 -15.000000
2708.125488 43.000000
2708.983398 47.000000
2709.841797 15.000000
2710.698975 13.000000
2711.555420 50.000000
2712.411377 50.000000
2713.267334 3.000000
2714.122559 -29.000000
2714.977051 43.000000
2715.831055 -44.000000
2716.685059 53.000000
2717.538086 42.000000
2718.391357 14.000000
2719.242920 38.000000
2720.094971 95.000000
2720.946777 -10.000000
2721.797363 60.000000
2722.647949 0.000000
2723.498047 -92.000000
2724.347412 -50.000000
2725.196777 -77.000000
2726.044922 53.000000
2726.892578 80.000000
2727.740723 -57.000000
2728.587646 56.000000
2729.435059 9.000000
2730.281006 18.000000
2731.126221 -37.000000
2731.971924 46.000000
2732.816650 28.000000
2733.661377 -27.000000
2734.504883 55.000000
2735.348633 -75.000000
2736.191650 -44.000000
2737.034180 21.000000
2737.875732 66.000000
2738.717773 -2.000000
2739.558838 87.000000
2740.399658 32.000000
2741.240234 1.000000
2742.079590 23.000000
2742.918945 -28.000000
2743.758301 -19.000000
2744.596436 -41.000000
2745.434082 -54.000000
2746.271729 2.000000
2747.108887 4.000000
2747.945801 42.000000
2748.782227 49.000000
2749.617432 64.000000
2750.452881 15.000000
2751.287842 9.000000
2752.122070 -23.000000
2752.956055 7.000000
2753.789551 27.000000
2754.623047 -2.000000
2755.455566 2.000000
2756.287598 6.000000
2757.119141 18.000000
2757.950684 -11.000000
2758.781250 32.000000
2759.612061 -12.000000
2760.441650 96.000000
2761.271240 160.000000
2762.100586 9.000000
2762.929199 -27.000000
2763.757324 -40.000000
2764.584961 -56.000000
2765.412598 -64.000000
2766.239746 -26.000000
2767.066162 -10.000000
2767.892090 -64.000000
2768.717529 24.000000
2769.542725 -41.000000
2770.367920 -40.000000
2771.191895 53.000000
2772.015869 116.000000
2772.839844 -41.000000
2773.662598 74.000000
2774.485596 149.000000
2775.307373 7.000000
2776.129150 -24.000000
2776.950928 99.000000
2777.771729 -55.000000
2778.591797 31.000000
2779.412109 25.000000
2780.231934 -19.000000
2781.051758 1.000000
2781.869629 67.000000
2782.688721 18.000000
2783.506592 -86.000000
2784.324219 -37.000000
2785.141357 18.000000
2785.958008 30.000000
2786.774414 19.000000
2787.590332 48.000000
2788.406006 38.000000
2789.220703 25.000000
2790.035889 49.000000
2790.850342 -6.000000
2791.664307 4.000000
2792.478027 7.000000
2793.290527 -41.000000
2794.103271 -6.000000
2794.915527 -104.000000
2795.727295 -28.000000
2796.538330 -50.000000
2797.350098 -63.000000
2798.160645 17.000000
2798.971191 95.000000
2799.780273 8.000000
2800.590088 -32.000000
2801.399170 38.000000
2802.208008 -17.000000
2803.016357 38.000000
2803.823730 0.000000
2804.631592 72.000000
2805.438721 -28.000000
2806.245605 6.000000
2807.051270 219.000000
2807.857422 -4.000000
2808.662842 24.000000
2809.468262 12.000000
2810.272949 35.000000
2811.076660 46.000000
2811.880859 24.000000
2812.684570 -40.000000
2813.488037 -19.000000
2814.290039 -22.000000
2815.092773 -60.000000
2815.894775 37.000000
2816.696533 52.000000
2817.497803 -57.000000
2818.298584 -48.000000
2819.098877 3.000000
2819.899414 99.000000
2820.698975 -12.000000
2821.498047 45.000000
2822.297119 4.000000
2823.095947 30.000000
2823.894287 35.000000
2824.691650 56.000000
2825.489258 -66.000000
2826.286133 31.000000
2827.083252 -45.000000
2827.879639 34.000000
2828.675293 97.000000
2829.470947 29.000000
2830.266357 -43.000000
2831.061279 75.000000
2831.855469 23.000000
2832.649658 -19.000000
2833.443604 -26.000000
2834.237061 71.000000
2835.029785 119.000000
2835.822266 7.000000
2836.614746 -29.000000
2837.406982 36.000000
2838.198730 87.000000
2838.989502 -54.000000
2839.780273 -29.000000
2840.571289 -49.000000
2841.361328 57.000000
2842.150879 -9.000000
2842.940674 63.000000
2843.729492 54.000000
2844.518311 -21.000000
2845.307129 51.000000
2846.094971 1.000000
2846.882324 -2.000000
2847.669922 81.000000
2848.457031 18.000000
2849.243408 61.000000
2850.029785 -54.000000
2850.815918 -13.000000
2851.601563 10.000000
2852.386230 21.000000
2853.171387 -7.000000
2853.956299 33.000000
2854.740479 50.000000
2855.524658 20.000000
2856.307617 -18.000000
2857.090820 22.000000
2857.873779 41.000000
2858.656250 -28.000000
2859.438477 53.000000
2860.220215 -76.000000
2861.001709 -25.000000
2861.783447 -46.000000
2862.564453 -7.000000
2863.344727 45.000000
2864.124756 49.000000
2864.904785 -38.000000
2865.684570 48.000000
2866.463379 21.000000
2867.242432 -9.000000
2868.020996 54.000000
2868.799316 -24.000000
2869.577148 103.000000
2870.354736 23.000000
2871.132080 -2.000000
2871.909180 36.000000
2872.685791 56.000000
2873.461914 63.000000
2874.238037 2.000000
2875.013672 88.000000
2875.789063 81.000000
2876.563965 40.000000
2877.338623 97.000000
2878.113281 -5.000000
2878.887695 39.000000
2879.661377 -9.000000
2880.434326 36.000000
2881.208008 129.000000
2881.980713 -6.000000
2882.753418 -11.000000
2883.525391 -26.000000
2884.297119 48.000000
2885.069336 -39.000000
2885.840332 121.000000
2886.610840 107.000000
2887.381836 89.000000
2888.152832 -19.000000
2888.923096 -10.000000
2889.692383 54.000000
2890.461914 127.000000
2891.231445 78.000000
2892.000488 38.000000
2892.769043 -36.000000
2893.537598 108.000000
2894.305176 122.000000
2895.073242 49.000000
2895.840820 112.000000
2896.608398 41.000000
2897.374756 4.000000
2898.142090 107.000000
2898.908203 6.000000
2899.674561 -32.000000
2900.439453 158.000000
2901.204834 52.000000
2901.970703 47.000000
2902.735107 68.000000
2903.499512 20.000000
2904.264160 52.000000
2905.027832 -13.000000
2905.792236 -1.000000
2906.555908 39.000000
2907.318848 48.000000
2908.081543 19.000000
2908.844727 77.000000
2909.607422 5.000000
2910.368896 49.000000
2911.130859 49.000000
spectrumdark 2048
-97.100060 6223.000000
-94.473190 6223.000000
-91.848198 6103.000000
-89.225098 6457.000000
-86.603867 5837.000000
-83.984535 6232.000000
-81.367065 6135.000000
-78.751472 6463.000000
-76.137756 6282.000000
-73.525917 5827.000000
-70.915939 6132.000000
-68.307846 6015.000000
-65.701599 6035.000000
-63.097229 6033.000000
-60.494720 6150.000000
-57.894066 5649.000000
-55.295273 6246.000000
-52.698338 6871.000000
-50.103256 6483.000000
-47.510029 6548.000000
-44.918652 6331.000000
-42.329121 6761.000000
-39.741432 5930.000000
-37.155594 6082.000000
-34.571598 6468.000000
-31.989439 5731.000000
-29.409126 6350.000000
-26.830641 5720.000000
-24.253998 6181.000000
-21.679180 6332.000000
-19.106203 6439.000000
-16.535046 6469.000000
-13.965721 6768.000000
-11.398223 7790.000000
-8.832543 6241.000000
-6.268690 6531.000000
-3.706649 6030.000000
-1.146433 5901.000000
1.411975 6129.000000
3.968562 6979.000000
6.523344 6671.000000
9.076309 6028.000000
11.627474 6731.000000
14.176826 6439.000000
16.724380 6611.000000
19.270124 6027.000000
21.814075 5781.000000
24.356222 6646.000000
26.896572 6786.000000
29.435137 6882.000000
31.971905 6238.000000
34.506870 5791.000000
37.040058 7233.000000
39.571465 6312.000000
42.101078 7124.000000
44.628895 6473.000000
47.154953 7810.000000
49.679222 5691.000000
52.201721 6264.000000
54.722424 6712.000000
57.241371 6359.000000
59.758545 6445.000000
62.273941 6614.000000
64.787560 5593.000000
67.299423 5741.000000
69.809540 6562.000000
72.317863 6522.000000
74.824432 5969.000000
77.329254 6282.000000
79.832321 6426.000000
82.333611 6305.000000
84.833160 6148.000000
87.330956 6371.000000
89.827019 5740.000000
92.321304 7265.000000
94.813850 5794.000000
97.304680 6928.000000
99.793739 7199.000000
102.281052 6445.000000
104.766640 6187.000000
107.250488 6397.000000
109.732590 5792.000000
112.212967 6559.000000
114.691620 6318.000000
117.168549 6563.000000
119.643723 7211.000000
122.117188 6820.000000
124.588921 5890.000000
127.058945 6729.000000
129.527222 6270.000000
131.993820 6315.000000
134.458664 5744.000000
136.921814 6212.000000
139.383224 7230.000000
141.842941 6869.000000
144.300934 6310.000000
146.757233 6021.000000
149.211823 5893.000000
151.664688 6849.000000
154.115875 6423.000000
156.565369 6644.000000
159.013138 6114.000000
161.459198 6591.000000
163.903580 8686.000000
166.346283 6430.000000
168.787292 6849.000000
171.226593 6281.000000
173.664185 7238.000000
176.100143 6660.000000
178.534363 6949.000000
180.966904 7166.000000
183.397797 6707.000000
185.826965 6844.000000
188.254486 6756.000000
190.680328 6358.000000
193.104492 6660.000000
195.526993 7167.000000
197.947800 7377.000000
200.366943 6505.000000
202.784424 6021.000000
205.200211 7572.000000
207.614349 7123.000000
210.026855 6399.000000
212.437683 6098.000000
214.846832 6263.000000
217.254349 7404.000000
219.660156 6127.000000
222.064377 6511.000000
224.466888 6765.000000
226.867783 6982.000000
229.267029 6529.000000
231.664612 6783.000000
234.060532 7295.000000
236.454834 6558.000000
238.847473 5853.000000
241.238495 6798.000000
243.627853 6566.000000
246.015594 6314.000000
248.401688 7005.000000
250.786148 6127.000000
253.168961 7965.000000
255.550201 6621.000000
257.929718 6645.000000
260.307678 6515.000000
262.683960 7523.000000
265.058685 7558.000000
267.431763 7915.000000
269.803192 6195.000000
272.172974 6415.000000
274.541199 5863.000000
276.907776 6352.000000
279.272766 6787.000000
281.636139 6035.000000
283.997864 6158.000000
286.358002 7090.000000
288.716522 6073.000000
291.073456 6514.000000
293.428772 6334.000000
295.782501 5984.000000
298.134583 5996.000000
300.485107 6375.000000
302.834045 6305.000000
305.181335 6829.000000
307.527100 6453.000000
309.871185 6513.000000
312.213745 7467.000000
314.554688 7623.000000
316.894012 7187.000000
319.231781 6963.000000
321.567993 8095.000000
323.902557 6310.000000
326.235565 6495.000000
328.567017 5947.000000
330.896881 6686.000000
333.225159 6419.000000
335.551819 7192.000000
337.876984 6358.000000
340.200531 6259.000000
342.522522 5973.000000
344.842957 7511.000000
347.161774 7733.000000
349.479034 6056.000000
351.794769 5834.000000
354.108917 6978.000000
356.421478 6299.000000
358.732483 6450.000000
361.041962 7088.000000
363.349915 6361.000000
365.656250 5692.000000
367.960999 6426.000000
370.264282 6405.000000
372.565948 6304.000000
374.866119 6378.000000
377.164734 6209.000000
379.461792 5708.000000
381.757294 6115.000000
384.051270 5841.000000
386.343658 5264.000000
388.634552 5610.000000
390.923920 6261.000000
393.211700 6227.000000
395.497955 6523.000000
397.782715 6985.000000
400.065857 6045.000000
402.347565 6427.000000
404.627747 6239.000000
406.906342 7206.000000
409.183411 6434.000000
411.458954 6714.000000
413.732971 6446.000000
416.005554 6479.000000
418.276520 6281.000000
420.545990 6464.000000
422.813965 7044.000000
425.080383 7200.000000
427.345306 6342.000000
429.608765 6287.000000
431.870636 6469.000000
434.131042 6024.000000
436.389893 6540.000000
438.647278 6113.000000
440.903168 5702.000000
443.157562 5819.000000
445.410431 5452.000000
447.661743 6912.000000
449.911652 6031.000000
452.159973 6244.000000
454.406860 5662.000000
456.652283 6441.000000
458.896149 6520.000000
461.138519 6854.000000
463.379395 5556.000000
465.618866 6709.000000
467.856750 5507.000000
470.093201 5945.000000
472.328125 6045.000000
474.561584 7381.000000
476.793610 6690.000000
479.024109 5666.000000
481.253113 6438.000000
483.480652 6295.000000
485.706696 6018.000000
487.931305 6556.000000
490.154449 5864.000000
492.376129 6465.000000
494.596252 6738.000000
496.814972 5665.000000
499.032196 6229.000000
501.248047 5521.000000
503.462280 6138.000000
505.675201 6429.000000
507.886536 6478.000000
510.096436 6899.000000
512.304932 6519.000000
514.512024 6589.000000
516.717529 6402.000000
518.921631 6580.000000
521.124207 6151.000000
523.325378 6566.000000
525.525208 6610.000000
527.723511 6917.000000
529.920288 5348.000000
532.115723 5843.000000
534.309631 5592.000000
536.502197 7469.000000
538.693237 6731.000000
540.882874 6021.000000
543.071106 6942.000000
545.257813 7088.000000
547.443054 6815.000000
549.627014 6227.000000
551.809387 6454.000000
553.990417 6209.000000
556.169922 6037.000000
558.348145 5835.000000
560.524841 6147.000000
562.700134 6392.000000
564.874023 6499.000000
567.046448 5955.000000
569.217468 6070.000000
571.387024 6354.000000
573.555298 5252.000000
575.722046 6490.000000
577.887329 6331.000000
580.051208 6117.000000
582.213806 5768.000000
584.374878 6036.000000
586.534546 5649.000000
588.692871 5827.000000
590.849670 6118.000000
593.005127 6661.000000
595.159180 5833.000000
597.311890 6171.000000
599.463074 7230.000000
601.612915 6781.000000
603.761414 6679.000000
605.908325 6067.000000
608.054016 6455.000000
610.198303 6409.000000
612.341125 6679.000000
614.482483 6123.000000
616.622620 6506.000000
618.761230 7491.000000
620.898560 5723.000000
623.034424 6559.000000
625.168884 6898.000000
627.301880 7200.000000
629.433716 6670.000000
631.564087 6550.000000
633.693054 6754.000000
635.820557 6501.000000
637.946777 6081.000000
640.071472 7408.000000
642.194946 6433.000000
644.317078 6796.000000
646.437744 6870.000000
648.557068 6599.000000
650.674988 5688.000000
652.791565 5703.000000
654.906738 6473.000000
657.020569 6468.000000
659.132935 5855.000000
661.244080 6101.000000
663.353821 5414.000000
665.462097 6603.000000
667.569214 6265.000000
669.674866 6787.000000
671.779053 5683.000000
673.882019 5697.000000
675.983582 7011.000000
678.083801 5326.000000
680.182617 6738.000000
682.280090 6230.000000
684.376282 6987.000000
686.471008 6235.000000
688.564514 7056.000000
690.656677 6641.000000
692.747314 7968.000000
694.836731 6682.000000
696.924866 6450.000000
699.011536 5973.000000
701.096985 6730.000000
703.180908 5125.000000
705.263611 5945.000000
707.345032 5904.000000
709.424988 7602.000000
711.503723 6245.000000
713.580994 5550.000000
715.656982 6595.000000
717.731689 6089.000000
719.805115 6856.000000
721.877014 6295.000000
723.947754 7341.000000
726.017151 5810.000000
728.085144 6491.000000
730.151794 6432.000000
732.217224 7035.000000
734.281311 5782.000000
736.344055 6268.000000
738.405457 6419.000000
740.465576 6617.000000
742.524292 6066.000000
744.581787 6616.000000
746.638000 6424.000000
748.692810 6703.000000
750.746338 6366.000000
752.798462 7501.000000
754.849365 5821.000000
756.899048 6664.000000
758.947266 6338.000000
760.994263 6200.000000
763.039978 7030.000000
765.084290 5319.000000
767.127319 5712.000000
769.169128 14988.000000
771.209595 6980.000000
773.248657 6336.000000
775.286560 6042.000000
777.323120 6005.000000
779.358459 5360.000000
781.392456 5809.000000
783.425049 6885.000000
785.456482 5493.000000
787.486511 11546.000000
789.515259 6097.000000
791.542847 6315.000000
793.569092 6375.000000
795.593933 5834.000000
797.617676 5596.000000
799.640015 6387.000000
801.661133 5839.000000
803.680908 6710.000000
805.699402 4885.000000
807.716675 6796.000000
809.732544 6819.000000
811.747253 5754.000000
813.760620 6469.000000
815.772766 6275.000000
817.783691 6073.000000
819.793274 6586.000000
821.801636 5176.000000
823.808594 5746.000000
825.814331 6047.000000
827.818848 5742.000000
829.822083 5725.000000
831.824036 6505.000000
833.824707 6104.000000
835.824158 5947.000000
837.822266 6320.000000
839.819275 6934.000000
841.814880 6267.000000
843.809326 5988.000000
845.802429 6227.000000
847.794312 6824.000000
849.784851 5664.000000
851.774109 6831.000000
853.762329 6013.000000
855.749146 5758.000000
857.734741 6396.000000
859.719055 7305.000000
861.702271 6335.000000
863.684082 6410.000000
865.664673 5773.000000
867.643982 7721.000000
869.622131 7051.000000
871.598938 6170.000000
873.574463 6008.000000
875.548950 6187.000000
877.521973 6091.000000
879.493958 5430.000000
881.464600 6421.000000
883.434082 6160.000000
885.402222 5570.000000
887.369202 5194.000000
889.334839 6133.000000
891.299316 5822.000000
893.262573 6033.000000
895.224609 6461.000000
897.185364 5861.000000
899.144897 6414.000000
901.103149 6765.000000
903.060303 6407.000000
905.016296 5995.000000
906.970886 6854.000000
908.924255 6489.000000
910.876465 6463.000000
912.827454 6351.000000
914.777161 7135.000000
916.725708 6305.000000
918.673035 6171.000000
920.619080 6154.000000
922.563843 6062.000000
924.507568 6343.000000
926.450134 5946.000000
928.391418 5591.000000
930.331360 6485.000000
932.270203 5685.000000
934.207764 5514.000000
936.144104 5992.000000
938.079285 5875.000000
940.013184 6107.000000
941.945984 5866.000000
943.877563 6789.000000
945.807983 5201.000000
947.737183 6407.000000
949.665039 7055.000000
951.591858 6629.000000
953.517395 5979.000000
955.441650 5350.000000
957.364807 6019.000000
959.286804 6751.000000
961.207520 7330.000000
963.127075 6495.000000
965.045471 5337.000000
966.962830 6438.000000
968.878723 6446.000000
970.793518 6156.000000
972.707092 5990.000000
974.619507 6435.000000
976.530701 6456.000000
978.440735 5464.000000
980.349487 6225.000000
982.257202 6161.000000
984.163696 6423.000000
986.068970 5749.000000
987.973145 6809.000000
989.876099 6190.000000
991.777832 6791.000000
993.678406 6463.000000
995.577820 6622.000000
997.476013 5267.000000
999.373047 6505.000000
1001.268860 6510.000000
1003.163513 7654.000000
1005.057068 5613.000000
1006.949341 7106.000000
1008.840698 6099.000000
1010.730713 5373.000000
1012.619507 6656.000000
1014.507141 6294.000000
1016.393616 6940.000000
1018.278931 6735.000000
1020.163086 5995.000000
1022.046021 5872.000000
1023.927917 6240.000000
1025.808472 5224.000000
1027.687988 5846.000000
1029.566528 6126.000000
1031.443726 5456.000000
1033.319580 6160.000000
1035.194458 5904.000000
1037.068359 6609.000000
1038.940796 7016.000000
1040.812256 6716.000000
1042.682373 5508.000000
1044.551514 5500.000000
1046.419434 5778.000000
1048.286255 7161.000000
1050.151978 6721.000000
1052.016479 6464.000000
1053.879883 6488.000000
1055.741943 6485.000000
1057.603027 5914.000000
1059.463013 6539.000000
1061.321655 6636.000000
1063.179199 5765.000000
1065.035645 6731.000000
1066.890991 5912.000000
1068.745117 5810.000000
1070.598389 6256.000000
1072.450195 6343.000000
1074.301025 6127.000000
1076.150635 6121.000000
1077.999023 5744.000000
1079.846558 7960.000000
1081.692749 5514.000000
1083.537720 6162.000000
1085.381836 5431.000000
1087.224609 5545.000000
1089.066162 6533.000000
1090.906982 5484.000000
1092.746216 5744.000000
1094.584717 6103.000000
1096.421875 6058.000000
1098.257813 6835.000000
1100.092773 6628.000000
1101.926514 5420.000000
1103.759277 5502.000000
1105.590698 6136.000000
1107.421265 7295.000000
1109.250488 6472.000000
1111.078735 6436.000000
1112.905762 7140.000000
1114.731812 5401.000000
1116.556641 6223.000000
1118.380371 7172.000000
1120.202881 6081.000000
1122.024292 5833.000000
1123.844849 5943.000000
1125.663940 6566.000000
1127.482178 7096.000000
1129.299072 6894.000000
1131.115112 6718.000000
1132.929932 6482.000000
1134.743652 5624.000000
1136.556274 5821.000000
1138.367676 5737.000000
1140.178101 6172.000000
1141.987427 6748.000000
1143.795410 6945.000000
1145.602661 5943.000000
1147.408447 5951.000000
1149.213379 5380.000000
1151.017212 5456.000000
1152.819824 6155.000000
1154.621582 6167.000000
1156.421875 6087.000000
1158.221191 6132.000000
1160.019531 5857.000000
1161.816528 5483.000000
1163.612793 5971.000000
1165.407715 6099.000000
1167.201538 6333.000000
1168.994507 7771.000000
1170.786133 5810.000000
1172.576782 6522.000000
1174.366455 5954.000000
1176.154663 5903.000000
1177.942017 7443.000000
1179.728271 6849.000000
1181.513428 5817.000000
1183.297485 5953.000000
1185.080444 7650.000000
1186.862427 5878.000000
1188.643188 5923.000000
1190.422974 6282.000000
1192.201660 6950.000000
1193.979370 6668.000000
1195.755859 7149.000000
1197.531250 6630.000000
1199.305542 6540.000000
1201.078735 6729.000000
1202.851074 6581.000000
1204.622070 6698.000000
1206.392212 5661.000000
1208.161133 6117.000000
1209.928955 6302.000000
1211.695923 5827.000000
1213.461548 5937.000000
1215.226196 6911.000000
1216.989746 6542.000000
1218.752197 5940.000000
1220.513794 6739.000000
1222.274170 5874.000000
1224.033447 6330.000000
1225.791870 6025.000000
1227.549072 7124.000000
1229.305176 6503.000000
1231.060181 5564.000000
1232.814331 6004.000000
1234.567139 5870.000000
1236.318970 6017.000000
1238.069946 5999.000000
1239.819580 4972.000000
1241.568359 7016.000000
1243.315796 6460.000000
1245.062500 6666.000000
1246.807983 6486.000000
1248.552612 6481.000000
1250.295898 6716.000000
1252.038208 6676.000000
1253.779419 5348.000000
1255.519775 5048.000000
1257.259033 5770.000000
1258.997070 6656.000000
1260.734253 7137.000000
1262.470215 6185.000000
1264.205200 6400.000000
1265.939209 7260.000000
1267.672241 5932.000000
1269.404053 6198.000000
1271.134888 6431.000000
1272.864502 7208.000000
1274.593262 5929.000000
1276.320923 5684.000000
1278.047485 5537.000000
1279.773193 5555.000000
1281.497559 6416.000000
1283.221069 5238.000000
1284.943604 6816.000000
1286.665161 6591.000000
1288.385498 6151.000000
1290.104858 6657.000000
1291.823120 7237.000000
1293.540405 6448.000000
1295.256714 5778.000000
1296.971802 6394.000000
1298.685913 6127.000000
1300.399048 5859.000000
1302.111328 6377.000000
1303.822388 8281.000000
1305.532471 5265.000000
1307.241455 6358.000000
1308.949219 6710.000000
1310.656372 7034.000000
1312.362061 5811.000000
1314.067017 6930.000000
1315.770996 6201.000000
1317.473755 5969.000000
1319.175537 6553.000000
1320.876465 6079.000000
1322.576050 9541.000000
1324.274780 31186.000000
1325.972778 5542.000000
1327.669434 6538.000000
1329.364990 7154.000000
1331.059692 6854.000000
1332.753174 5732.000000
1334.445801 5392.000000
1336.137573 7113.000000
1337.828003 6353.000000
1339.517700 6657.000000
1341.206299 6157.000000
1342.893799 7569.000000
1344.580322 5615.000000
1346.265747 6755.000000
1347.950195 5967.000000
1349.633789 7330.000000
1351.316162 6422.000000
1352.997559 5990.000000
1354.678101 6478.000000
1356.357422 6739.000000
1358.036133 5868.000000
1359.713501 6648.000000
1361.389771 5797.000000
1363.065063 5548.000000
1364.739624 6586.000000
1366.412964 6448.000000
1368.085327 6785.000000
1369.756714 5171.000000
1371.427124 6717.000000
1373.096436 6160.000000
1374.764771 5724.000000
1376.432251 5970.000000
1378.098633 6478.000000
1379.764038 6030.000000
1381.428467 5928.000000
1383.091675 5968.000000
1384.754272 5724.000000
1386.415527 6384.000000
1388.075928 6520.000000
1389.735229 6440.000000
1391.393555 6545.000000
1393.051147 6817.000000
1394.707520 6521.000000
1396.363037 7012.000000
1398.017334 6365.000000
1399.670776 5850.000000
1401.323120 6071.000000
1402.974731 6435.000000
1404.625122 7193.000000
1406.274414 6282.000000
1407.922974 7484.000000
1409.570435 7915.000000
1411.216919 6126.000000
1412.862549 6306.000000
1414.507202 6020.000000
1416.150635 7021.000000
1417.793213 7127.000000
1419.434692 6837.000000
1421.075317 6432.000000
1422.714966 6508.000000
1424.353516 5986.000000
1425.991211 6599.000000
1427.627808 6371.000000
1429.263428 5997.000000
1430.898315 6396.000000
1432.532104 5953.000000
1434.164795 6167.000000
1435.796509 5694.000000
1437.427368 6190.000000
1439.057129 6073.000000
1440.685791 7687.000000
1442.313843 6018.000000
1443.940796 6209.000000
1445.566528 6221.000000
1447.191650 6183.000000
1448.815674 6542.000000
1450.438721 6021.000000
1452.060791 6038.000000
1453.681763 7343.000000
1455.301758 6278.000000
1456.921021 6844.000000
1458.538940 5663.000000
1460.156250 18884.000000
1461.772583 5535.000000
1463.387695 7208.000000
1465.001953 6237.000000
1466.615356 5183.000000
1468.227661 5620.000000
1469.839111 6323.000000
1471.449707 6368.000000
1473.059082 5966.000000
1474.667480 6075.000000
1476.275024 6193.000000
1477.881592 6655.000000
1479.487427 5261.000000
1481.092041 6293.000000
1482.695801 5502.000000
1484.298340 6807.000000
1485.900269 5583.000000
1487.500977 5478.000000
1489.100952 5590.000000
1490.699829 6341.000000
1492.297852 6499.000000
1493.894775 6674.000000
1495.490845 6288.000000
1497.085938 6004.000000
1498.680054 5554.000000
1500.273438 6695.000000
1501.865723 5484.000000
1503.456787 6021.000000
1505.047363 6685.000000
1506.636597 6464.000000
1508.225220 6154.000000
1509.812744 6549.000000
1511.399170 6855.000000
1512.984863 6179.000000
1514.569458 6661.000000
1516.153198 6173.000000
1517.735840 6219.000000
1519.317749 6579.000000
1520.898560 6659.000000
1522.478638 6086.000000
1524.057495 6235.000000
1525.635498 6379.000000
1527.212769 6243.000000
1528.788818 5670.000000
1530.364136 5917.000000
1531.938354 6355.000000
1533.511841 5463.000000
1535.084106 5942.000000
1536.655640 6388.000000
1538.226196 6406.000000
1539.795898 6318.000000
1541.364380 5519.000000
1542.932129 6592.000000
1544.499023 5676.000000
1546.064697 6824.000000
1547.629639 5965.000000
1549.193481 5102.000000
1550.756714 7528.000000
1552.318604 6277.000000
1553.879883 5952.000000
1555.440063 5686.000000
1556.999512 5709.000000
1558.557861 6088.000000
1560.115479 6206.000000
1561.671997 7032.000000
1563.227295 5876.000000
1564.781982 6346.000000
1566.335938 5640.000000
1567.888916 6261.000000
1569.440552 5676.000000
1570.991455 5900.000000
1572.541626 6241.000000
1574.090820 6409.000000
1575.638672 5779.000000
1577.186035 5508.000000
1578.732422 5772.000000
1580.277954 5115.000000
1581.822510 6687.000000
1583.365845 6367.000000
1584.908569 6616.000000
1586.450439 6421.000000
1587.991211 6710.000000
1589.531006 5879.000000
1591.070068 6699.000000
1592.608032 5929.000000
1594.145508 6042.000000
1595.681641 5893.000000
1597.216675 6622.000000
1598.751221 6219.000000
1600.284790 6018.000000
1601.817505 5969.000000
1603.348633 6290.000000
1604.879517 6309.000000
1606.409546 5775.000000
1607.938354 6069.000000
1609.466064 6122.000000
1610.993164 6045.000000
1612.519531 5811.000000
1614.044922 6274.000000
1615.569458 5818.000000
1617.092651 5792.000000
1618.615112 5622.000000
1620.136841 6522.000000
1621.657715 6940.000000
1623.177124 15625.000000
1624.696045 6124.000000
1626.214233 6097.000000
1627.731567 5933.000000
1629.247803 6400.000000
1630.762695 6999.000000
1632.277100 6676.000000
1633.790771 5742.000000
1635.303345 6878.000000
1636.814697 6008.000000
1638.325684 6415.000000
1639.835571 6236.000000
1641.344604 6189.000000
1642.852295 5617.000000
1644.359619 6108.000000
1645.866089 7111.000000
1647.371582 6264.000000
1648.876221 6838.000000
1650.379395 6179.000000
1651.881958 6565.000000
1653.384155 6335.000000
1654.885010 6696.000000
1656.384766 7680.000000
1657.883667 5962.000000
1659.382202 6527.000000
1660.879517 6286.000000
1662.376099 5925.000000
1663.871094 6509.000000
1665.365845 6360.000000
1666.859741 5206.000000
1668.352661 5657.000000
1669.844238 20423.000000
1671.335327 6407.000000
1672.825806 6136.000000
1674.315186 5980.000000
1675.803101 6979.000000
1677.290771 6867.000000
1678.777466 5974.000000
1680.263306 5405.000000
1681.748291 6116.000000
1683.231812 6162.000000
1684.715088 6154.000000
1686.197510 5841.000000
1687.678833 6234.000000
1689.158691 6248.000000
1690.638306 5553.000000
1692.117188 6589.000000
1693.595093 6063.000000
1695.072021 6064.000000
1696.547729 5753.000000
1698.023071 6094.000000
1699.497192 6334.000000
1700.970703 5467.000000
1702.442749 5545.000000
1703.914551 6935.000000
1705.385376 6341.000000
1706.855347 7053.000000
1708.323975 5135.000000
1709.792114 5834.000000
1711.259521 6386.000000
1712.725830 5483.000000
1714.191528 5774.000000
1715.655518 6259.000000
1717.119385 6069.000000
1718.582397 6937.000000
1720.044434 6362.000000
1721.505249 6620.000000
1722.965454 5499.000000
1724.424927 5691.000000
1725.883545 6171.000000
1727.341187 5993.000000
1728.797485 6261.000000
1730.253540 6063.000000
1731.708618 6490.000000
1733.162720 6019.000000
1734.615601 6826.000000
1736.068237 5951.000000
1737.519775 6791.000000
1738.970581 5940.000000
1740.420410 6563.000000
1741.868896 5885.000000
1743.317017 7330.000000
1744.764282 6583.000000
1746.210815 6644.000000
1747.655762 6663.000000
1749.100464 6119.000000
1750.544312 5773.000000
1751.987305 5467.000000
1753.428833 6561.000000
1754.870117 6335.000000
1756.310547 19402.000000
1757.750000 6274.000000
1759.188477 5263.000000
1760.625977 6058.000000
1762.062988 7546.000000
1763.499023 5861.000000
1764.934204 7148.000000
1766.367920 6174.000000
1767.801514 6424.000000
1769.234131 6664.000000
1770.665894 5815.000000
1772.096802 5664.000000
1773.526489 6360.000000
1774.955444 6144.000000
1776.383911 6260.000000
1777.811401 6730.000000
1779.237549 6289.000000
1780.663452 5552.000000
1782.088257 6933.000000
1783.512451 5637.000000
1784.935181 6668.000000
1786.357422 6607.000000
1787.778931 6897.000000
1789.199707 5938.000000
1790.619507 6167.000000
1792.037964 6196.000000
1793.455933 6891.000000
1794.873291 5551.000000
1796.289795 6141.000000
1797.704834 6554.000000
1799.119507 5893.000000
1800.533569 6562.000000
1801.946411 5971.000000
1803.358643 6942.000000
1804.769531 7145.000000
1806.179932 7771.000000
1807.589600 6425.000000
1808.998291 5954.000000
1810.405884 5392.000000
1811.812988 6366.000000
1813.219238 6355.000000
1814.624512 6702.000000
1816.028687 5953.000000
1817.432495 5949.000000
1818.835327 6192.000000
1820.237305 5986.000000
1821.638672 5841.000000
1823.038574 6418.000000
1824.437866 6379.000000
1825.836670 6573.000000
1827.234619 7453.000000
1828.631226 5775.000000
1830.027222 6761.000000
1831.422485 5931.000000
1832.817139 8142.000000
1834.210815 6035.000000
1835.603149 6822.000000
1836.994995 6446.000000
1838.386230 5898.000000
1839.776489 7108.000000
1841.165527 6006.000000
1842.554199 6088.000000
1843.941895 5953.000000
1845.328857 5797.000000
1846.714478 6849.000000
1848.099854 5821.000000
1849.484375 6364.000000
1850.868164 6303.000000
1852.250854 6339.000000
1853.632324 5355.000000
1855.013306 6550.000000
1856.393799 6257.000000
1857.773315 5694.000000
1859.151367 6006.000000
1860.529297 6331.000000
1861.906250 7856.000000
1863.282471 6118.000000
1864.657837 6053.000000
1866.031738 5668.000000
1867.405518 5731.000000
1868.778442 6177.000000
1870.150269 5905.000000
1871.521118 6922.000000
1872.891602 5420.000000
1874.260986 6062.000000
1875.629883 6123.000000
1876.997192 7179.000000
1878.364380 6072.000000
1879.730591 6005.000000
1881.096069 6829.000000
1882.460815 7494.000000
1883.823975 6798.000000
1885.187012 6889.000000
1886.549194 6382.000000
1887.910522 6446.000000
1889.270508 5652.000000
1890.630127 5824.000000
1891.989136 6167.000000
1893.347168 6629.000000
1894.704346 7312.000000
1896.060303 5916.000000
1897.416016 7632.000000
1898.770752 5834.000000
1900.124634 5519.000000
1901.477417 5920.000000
1902.829712 5988.000000
1904.181274 5921.000000
1905.531982 6897.000000
1906.881470 6595.000000
1908.230469 6620.000000
1909.578613 5821.000000
1910.926147 6163.000000
1912.272949 6331.000000
1913.618164 6735.000000
1914.963135 6045.000000
1916.307373 5458.000000
1917.650757 6542.000000
1918.992798 5963.000000
1920.334595 6739.000000
1921.675537 7019.000000
1923.015747 6204.000000
1924.354980 6316.000000
1925.693237 6267.000000
1927.030884 6486.000000
1928.367798 6947.000000
1929.703857 6788.000000
1931.038696 5625.000000
1932.373169 6594.000000
1933.706909 7260.000000
1935.039795 6258.000000
1936.371216 5761.000000
1937.702759 6298.000000
1939.032959 6580.000000
1940.362671 5793.000000
1941.691528 6085.000000
1943.019165 5914.000000
1944.346313 4989.000000
1945.672729 5885.000000
1946.998413 6466.000000
1948.322754 5719.000000
1949.646851 6564.000000
1950.970093 6267.000000
1952.292603 6447.000000
1953.614014 5788.000000
1954.934448 7379.000000
1956.254272 6004.000000
1957.573730 5547.000000
1958.892212 6811.000000
1960.209351 5933.000000
1961.526123 5851.000000
1962.842163 6552.000000
1964.157471 6567.000000
1965.471313 6274.000000
1966.784912 5723.000000
1968.097778 6290.000000
1969.409790 5996.000000
1970.721191 6090.000000
1972.031250 6313.000000
1973.340820 5886.000000
1974.649658 6192.000000
1975.957886 6560.000000
1977.264771 6084.000000
1978.571045 7222.000000
1979.876953 5533.000000
1981.181641 6404.000000
1982.485840 5941.000000
1983.788818 5737.000000
1985.091431 7584.000000
1986.393066 6122.000000
1987.694092 6781.000000
1988.993530 6143.000000
1990.293091 6630.000000
1991.591553 5313.000000
1992.889526 6085.000000
1994.185913 6090.000000
1995.482300 5790.000000
1996.777710 5577.000000
1998.072388 6531.000000
1999.366211 5738.000000
2000.658813 6528.000000
2001.950928 5652.000000
2003.242554 7171.000000
2004.533447 6462.000000
2005.822754 6277.000000
2007.111816 6844.000000
2008.400146 6057.000000
2009.687744 6042.000000
2010.974487 6793.000000
2012.260132 5655.000000
2013.545410 6357.000000
2014.829712 6003.000000
2016.113403 5557.000000
2017.395752 6030.000000
2018.677734 6474.000000
2019.959229 6755.000000
2021.239746 5886.000000
2022.519531 6107.000000
2023.798218 6745.000000
2025.076172 5884.000000
2026.353638 5886.000000
2027.630493 6308.000000
2028.905640 5750.000000
2030.180908 6566.000000
2031.455200 6065.000000
2032.728516 5905.000000
2034.000977 5993.000000
2035.273071 6089.000000
2036.544067 6964.000000
2037.814819 6647.000000
2039.084229 6038.000000
2040.352539 6730.000000
2041.620850 6646.000000
2042.888184 5964.000000
2044.154785 6006.000000
2045.420166 5672.000000
2046.684937 5560.000000
2047.949463 5448.000000
2049.212891 5873.000000
2050.475830 6417.000000
2051.736816 6140.000000
2052.998291 6076.000000
2054.258545 5925.000000
2055.518066 6490.000000
2056.776855 6227.000000
2058.034668 6928.000000
2059.291992 6189.000000
2060.548584 5998.000000
2061.803711 6549.000000
2063.058838 5695.000000
2064.312988 5612.000000
2065.566406 5651.000000
2066.819092 6865.000000
2068.070557 6215.000000
2069.321777 6303.000000
2070.572266 5604.000000
2071.822021 5450.000000
2073.070313 6206.000000
2074.318604 6519.000000
2075.565918 7455.000000
2076.812500 5585.000000
2078.058350 6040.000000
2079.302979 6988.000000
2080.547119 7631.000000
2081.790771 5522.000000
2083.033447 6063.000000
2084.274902 7020.000000
2085.516113 6000.000000
2086.756836 6330.000000
2087.996582 6760.000000
2089.235107 7103.000000
2090.473145 6256.000000
2091.710449 5809.000000
2092.947510 6681.000000
2094.183105 6068.000000
2095.417969 6174.000000
2096.652588 6113.000000
2097.886230 5622.000000
2099.118896 6126.000000
2100.350830 6893.000000
2101.582275 6389.000000
2102.812744 6723.000000
2104.042480 6068.000000
2105.271973 6029.000000
2106.499512 6035.000000
2107.727295 6022.000000
2108.954346 6274.000000
2110.180420 5488.000000
2111.405029 6434.000000
2112.629883 6959.000000
2113.853516 7056.000000
2115.076660 6165.000000
2116.298584 7600.000000
2117.520264 6093.000000
2118.740967 6802.000000
2119.960938 6044.000000
2121.180420 6150.000000
2122.398438 6572.000000
2123.616455 7006.000000
2124.833496 5753.000000
2126.050049 5761.000000
2127.264893 6572.000000
2128.479980 6280.000000
2129.694092 6848.000000
2130.907471 5698.000000
2132.120117 6046.000000
2133.331299 5856.000000
2134.542725 6577.000000
2135.752930 6636.000000
2136.962646 5936.000000
2138.170898 6152.000000
2139.379150 5649.000000
2140.586670 5891.000000
2141.792969 7661.000000
2142.998535 5905.000000
2144.203857 5668.000000
2145.408203 5571.000000
2146.611816 6302.000000
2147.814941 6210.000000
2149.016602 6582.000000
2150.218018 5425.000000
2151.418701 6263.000000
2152.618652 5997.000000
2153.817383 6080.000000
2155.015869 6961.000000
2156.213867 6159.000000
2157.410889 6035.000000
2158.607178 5162.000000
2159.802246 5320.000000
2160.997070 6166.000000
2162.191162 5543.000000
2163.384277 5991.000000
2164.576416 6864.000000
2165.768311 5988.000000
2166.959473 6332.000000
2168.149658 6295.000000
2169.339111 6474.000000
2170.528076 6800.000000
2171.716064 6333.000000
2172.903809 5684.000000
2174.090088 5983.000000
2175.275635 6545.000000
2176.460938 6037.000000
2177.645752 5826.000000
2178.829346 6320.000000
2180.012207 7507.000000
2181.194092 6306.000000
2182.375732 6122.000000
2183.556885 6536.000000
2184.736816 5732.000000
2185.915771 5566.000000
2187.094238 6380.000000
2188.272461 6877.000000
2189.449463 7181.000000
2190.625488 6697.000000
2191.801270 6089.000000
2192.976563 5565.000000
2194.150391 6702.000000
2195.323730 6154.000000
2196.496826 6166.000000
2197.668701 6382.000000
2198.840088 7111.000000
2200.010986 6321.000000
2201.180176 6848.000000
2202.349365 7600.000000
2203.518066 6309.000000
2204.685791 5874.000000
2205.852539 5718.000000
2207.018555 7068.000000
2208.184082 6713.000000
2209.349365 5966.000000
2210.513184 6745.000000
2211.676514 5452.000000
2212.838623 6205.000000
2214.000977 6182.000000
2215.162109 6705.000000
2216.322266 6670.000000
2217.481934 6328.000000
2218.641357 6559.000000
2219.799561 6416.000000
2220.956787 6362.000000
2222.113770 6765.000000
2223.270020 6601.000000
2224.425537 6779.000000
2225.580322 6320.000000
2226.734131 6480.000000
2227.886963 6047.000000
2229.040283 6878.000000
2230.191650 6243.000000
2231.342773 6152.000000
2232.493164 6556.000000
2233.643066 7682.000000
2234.791992 6305.000000
2235.940430 5267.000000
2237.087402 6752.000000
2238.234619 7168.000000
2239.380615 6093.000000
2240.526367 7247.000000
2241.670410 7298.000000
2242.814697 6720.000000
2243.958008 6173.000000
2245.100586 5967.000000
2246.242188 5775.000000
2247.383545 5809.000000
2248.523926 6448.000000
2249.663574 6410.000000
2250.802734 5827.000000
2251.940674 5834.000000
2253.078613 6226.000000
2254.215576 5304.000000
2255.351807 6333.000000
2256.487061 6122.000000
2257.621582 7301.000000
2258.755859 6389.000000
2259.889648 5433.000000
2261.021973 6126.000000
2262.153809 6804.000000
2263.285156 6263.000000
2264.415527 6494.000000
2265.545654 8051.000000
2266.674561 6684.000000
2267.802979 6108.000000
2268.930908 5507.000000
2270.057861 6173.000000
2271.184082 5939.000000
2272.309326 6773.000000
2273.434570 6573.000000
2274.559082 6419.000000
2275.682373 5923.000000
2276.804932 6338.000000
2277.927002 5926.000000
2279.048584 7371.000000
2280.169434 6415.000000
2281.289063 6463.000000
2282.408203 7048.000000
2283.527100 7665.000000
2284.645264 7214.000000
2285.762451 5898.000000
2286.878662 6439.000000
2287.994629 7028.000000
2289.109863 6875.000000
2290.224365 7396.000000
2291.337646 5824.000000
2292.450928 6338.000000
2293.563477 6048.000000
2294.675293 5411.000000
2295.786377 6773.000000
2296.896240 6432.000000
2298.005615 6201.000000
2299.114746 6749.000000
2300.222900 6362.000000
2301.330078 6743.000000
2302.437012 5929.000000
2303.543213 6338.000000
2304.648926 6550.000000
2305.753174 6612.000000
2306.857178 5502.000000
2307.960693 5730.000000
2309.063721 6552.000000
2310.165527 7425.000000
2311.266602 7376.000000
2312.367188 6557.000000
2313.467285 5508.000000
2314.566650 6364.000000
2315.664551 6586.000000
2316.762939 7036.000000
2317.859863 8259.000000
2318.956543 6965.000000
2320.052734 5797.000000
2321.147217 6852.000000
2322.241699 7637.000000
2323.335449 5835.000000
2324.428955 6015.000000
2325.520752 6487.000000
2326.612549 6917.000000
2327.703613 6174.000000
2328.793945 6287.000000
2329.883301 6887.000000
2330.972656 6011.000000
2332.060791 6318.000000
2333.148438 6832.000000
2334.235840 6562.000000
2335.321533 6699.000000
2336.406982 7699.000000
2337.492188 6292.000000
2338.576416 6740.000000
2339.659668 5981.000000
2340.742676 6463.000000
2341.824707 7067.000000
2342.906494 6020.000000
2343.987549 7496.000000
2345.067383 6623.000000
2346.146729 5706.000000
2347.225586 6790.000000
2348.303955 6564.000000
2349.380859 6348.000000
2350.457520 6962.000000
2351.533936 6036.000000
2352.609375 6444.000000
2353.683838 5924.000000
2354.758057 6293.000000
2355.831543 6752.000000
2356.904541 6244.000000
2357.976318 7161.000000
2359.047852 6285.000000
2360.118408 6871.000000
2361.188721 7464.000000
2362.258057 7513.000000
2363.326416 6859.000000
2364.394531 6815.000000
2365.461914 7078.000000
2366.528809 7129.000000
2367.594971 6155.000000
2368.659912 6830.000000
2369.724854 6962.000000
2370.789063 6352.000000
2371.852539 6978.000000
2372.914795 5767.000000
2373.977051 6253.000000
2375.038330 6369.000000
2376.099365 5964.000000
2377.159180 6324.000000
2378.218262 7866.000000
2379.277344 6487.000000
2380.335449 7587.000000
2381.392822 6876.000000
2382.449219 8040.000000
2383.505371 7788.000000
2384.561035 6174.000000
2385.615967 7030.000000
2386.669434 6700.000000
2387.723145 6601.000000
2388.775879 6312.000000
2389.828125 6764.000000
2390.879639 6117.000000
2391.930176 6605.000000
2392.980469 6518.000000
2394.029785 6273.000000
2395.079102 6232.000000
2396.126953 6859.000000
2397.174316 7014.000000
2398.221436 6281.000000
2399.267578 6683.000000
2400.312988 6196.000000
2401.357666 6743.000000
2402.402344 7732.000000
2403.445557 7427.000000
2404.488770 6582.000000
2405.530518 5744.000000
2406.572510 6699.000000
2407.613770 7081.000000
2408.654053 6139.000000
2409.693604 6428.000000
2410.732178 6444.000000
2411.770996 6010.000000
2412.808594 6531.000000
2413.845947 6870.000000
2414.882080 7205.000000
2415.917969 6188.000000
2416.953125 6312.000000
2417.987793 6863.000000
2419.020996 7197.000000
2420.054443 6418.000000
2421.086914 6700.000000
2422.119141 6757.000000
2423.149902 7127.000000
2424.180664 6394.000000
2425.210938 6841.000000
2426.239990 6876.000000
2427.269043 6618.000000
2428.296387 7402.000000
2429.324219 6708.000000
2430.350830 7251.000000
2431.377197 6929.000000
2432.402100 7712.000000
2433.427246 6577.000000
2434.451416 7149.000000
2435.475342 6735.000000
2436.498047 5770.000000
2437.520020 6340.000000
2438.541748 6683.000000
2439.562744 6643.000000
2440.583252 6002.000000
2441.602539 6516.000000
2442.621826 6592.000000
2443.640137 8466.000000
2444.658203 6266.000000
2445.674805 6453.000000
2446.691406 6589.000000
2447.707275 6004.000000
2448.723145 7049.000000
2449.737549 6856.000000
2450.751221 5530.000000
2451.764404 7226.000000
2452.777344 6005.000000
2453.789551 7191.000000
2454.800781 6625.000000
2455.811768 7681.000000
2456.822021 6377.000000
2457.831787 7526.000000
2458.840576 5915.000000
2459.848633 5987.000000
2460.856689 6354.000000
2461.863525 7350.000000
2462.870117 5460.000000
2463.875488 7434.000000
2464.880615 6882.000000
2465.885498 5829.000000
2466.889160 6537.000000
2467.892578 6369.000000
2468.895020 7620.000000
2469.897217 7316.000000
2470.898926 6847.000000
2471.899658 6542.000000
2472.899414 6891.000000
2473.899170 6793.000000
2474.897949 5669.000000
2475.896240 6558.000000
2476.893555 7028.000000
2477.890625 6107.000000
2478.887695 6846.000000
2479.883301 5814.000000
2480.878906 7165.000000
2481.872803 6664.000000
2482.866699 8059.000000
2483.860107 6837.000000
2484.853027 6720.000000
2485.844971 7490.000000
2486.836182 7236.000000
2487.827148 6707.000000
2488.817627 5871.000000
2489.807129 6593.000000
2490.795898 6537.000000
2491.784668 5697.000000
2492.772461 6783.000000
2493.759033 6602.000000
2494.745605 7990.000000
2495.731689 6723.000000
2496.717041 7075.000000
2497.701416 8390.000000
2498.685547 6117.000000
2499.669678 6897.000000
2500.652344 5731.000000
2501.634521 7038.000000
2502.616211 6889.000000
2503.597168 7258.000000
2504.577637 6551.000000
2505.557861 5715.000000
2506.536621 6401.000000
2507.515137 7595.000000
2508.493164 6737.000000
2509.470703 7106.000000
2510.447266 6126.000000
2511.423584 5962.000000
2512.399170 6450.000000
2513.374268 6234.000000
2514.348877 6504.000000
2515.322266 7492.000000
2516.295410 6792.000000
2517.268311 6884.000000
2518.240234 6105.000000
2519.211426 6865.000000
2520.182129 6968.000000
2521.152588 7801.000000
2522.122314 8100.000000
2523.091064 6158.000000
2524.059082 6151.000000
2525.027100 7768.000000
2525.994141 6327.000000
2526.960938 5573.000000
2527.926514 7217.000000
2528.892090 7047.000000
2529.856934 7725.000000
2530.821289 6383.000000
2531.784424 6387.000000
2532.747803 5907.000000
2533.710205 5990.000000
2534.672363 6702.000000
2535.633301 6446.000000
2536.593506 6087.000000
2537.553955 6135.000000
2538.513428 6821.000000
2539.472168 6832.000000
2540.429932 6712.000000
2541.387939 6234.000000
2542.345215 6762.000000
2543.301514 6138.000000
2544.257568 7033.000000
2545.212402 6204.000000
2546.167480 7709.000000
2547.121826 6980.000000
2548.075439 6872.000000
2549.028076 7186.000000
2549.980469 6708.000000
2550.932373 6978.000000
2551.883545 6364.000000
2552.833984 7752.000000
2553.783936 7312.000000
2554.733643 7404.000000
2555.682617 6692.000000
2556.631104 6256.000000
2557.578369 7165.000000
2558.525635 6281.000000
2559.472168 6549.000000
2560.418213 6741.000000
2561.363281 7393.000000
2562.308105 6767.000000
2563.252441 7214.000000
2564.196289 6854.000000
2565.139648 6650.000000
2566.081543 6603.000000
2567.023682 6555.000000
2567.965088 6188.000000
2568.905762 7220.000000
2569.845703 7233.000000
2570.785645 5755.000000
2571.724609 6147.000000
2572.663330 7516.000000
2573.601074 7272.000000
2574.538574 5526.000000
2575.475342 6991.000000
2576.411377 6779.000000
2577.346924 7561.000000
2578.281738 6268.000000
2579.216553 5992.000000
2580.150391 7058.000000
2581.083740 7058.000000
2582.016357 5874.000000
2582.948730 6916.000000
2583.880371 5460.000000
2584.811523 7052.000000
2585.742188 7020.000000
2586.671631 6881.000000
2587.601074 7373.000000
2588.530029 6505.000000
2589.458740 7549.000000
2590.385742 7197.000000
2591.312988 5886.000000
2592.239746 6750.000000
2593.165771 6315.000000
2594.091553 5650.000000
2595.016113 7634.000000
2595.940430 7684.000000
2596.864258 5333.000000
2597.787598 7319.000000
2598.709961 6208.000000
2599.632080 6897.000000
2600.553711 8321.000000
2601.474609 6459.000000
2602.394775 5798.000000
2603.314697 6392.000000
2604.234131 6342.000000
2605.153320 6451.000000
2606.071533 5859.000000
2606.988525 6037.000000
2607.905762 7296.000000
2608.822754 5928.000000
2609.738770 7595.000000
2610.653564 6634.000000
2611.568848 6594.000000
2612.483398 6541.000000
2613.396973 6576.000000
2614.310547 6083.000000
2615.222900 7612.000000
2616.135254 7132.000000
2617.046631 6826.000000
2617.957764 5685.000000
2618.868164 7199.000000
2619.778320 6652.000000
2620.687744 6145.000000
2621.596680 6580.000000
2622.504639 6282.000000
2623.412842 6855.000000
2624.320068 6636.000000
2625.226807 7027.000000
2626.132813 6020.000000
2627.038574 6665.000000
2627.943604 6387.000000
2628.848389 7884.000000
2629.752441 6471.000000
2630.655518 6444.000000
2631.558594 6419.000000
2632.460693 5603.000000
2633.362793 6777.000000
2634.264648 6994.000000
2635.164795 6721.000000
2636.065186 6418.000000
2636.964844 6442.000000
2637.864258 6042.000000
2638.762207 6857.000000
2639.660645 6691.000000
2640.558594 6368.000000
2641.455811 6101.000000
2642.351807 6176.000000
2643.247803 6706.000000
2644.143555 6098.000000
2645.038574 6505.000000
2645.933350 6650.000000
2646.826660 7065.000000
2647.719971 6305.000000
2648.613037 6813.000000
2649.505859 6471.000000
2650.396973 7473.000000
2651.288330 6454.000000
2652.179199 7627.000000
2653.069336 7246.000000
2653.959229 6578.000000
2654.847900 7291.000000
2655.736816 6632.000000
2656.625244 6547.000000
2657.512695 7353.000000
2658.399170 6485.000000
2659.286133 7126.000000
2660.172363 6928.000000
2661.058105 6859.000000
2661.942627 6542.000000
2662.827148 6415.000000
2663.711426 6205.000000
2664.594971 7057.000000
2665.478027 7774.000000
2666.360352 7356.000000
2667.242188 6223.000000
2668.123291 6623.000000
2669.004639 6110.000000
2669.884521 6573.000000
2670.764648 7405.000000
2671.644043 7170.000000
2672.523438 6163.000000
2673.402100 6144.000000
2674.279053 6466.000000
2675.156738 6786.000000
2676.033691 6413.000000
2676.909912 8090.000000
2677.785645 7221.000000
2678.660645 6221.000000
2679.535889 7780.000000
2680.410156 6967.000000
2681.283936 7292.000000
2682.156982 6987.000000
2683.029785 6223.000000
2683.902344 6069.000000
2684.774170 6983.000000
2685.645264 6565.000000
2686.516113 6919.000000
2687.386475 7162.000000
2688.256592 6706.000000
2689.125000 6255.000000
2689.994141 7414.000000
2690.862549 7103.000000
2691.730713 6709.000000
2692.598145 6984.000000
2693.464355 5922.000000
2694.331055 7197.000000
2695.196777 7447.000000
2696.062500 7219.000000
2696.926758 7916.000000
2697.791748 6593.000000
2698.655273 7242.000000
2699.519043 5830.000000
2700.381348 7423.000000
2701.244141 6793.000000
2702.105957 5966.000000
2702.967285 6864.000000
2703.828613 6665.000000
2704.688721 7434.000000
2705.548828 7378.000000
2706.408447 6613.000000
2707.267822 6836.000000
2708.125488 7154.000000
2708.983398 6880.000000
2709.841797 7333.000000
2710.698975 6746.000000
2711.555420 6005.000000
2712.411377 6881.000000
2713.267334 6096.000000
2714.122559 6962.000000
2714.977051 6092.000000
2715.831055 6862.000000
2716.685059 7290.000000
2717.538086 6284.000000
2718.391357 6469.000000
2719.242920 7704.000000
2720.094971 6709.000000
2720.946777 6332.000000
2721.797363 6436.000000
2722.647949 6695.000000
2723.498047 7209.000000
2724.347412 7043.000000
2725.196777 7041.000000
2726.044922 6684.000000
2726.892578 6546.000000
2727.740723 7043.000000
2728.587646 6779.000000
2729.435059 5575.000000
2730.281006 7504.000000
2731.126221 7029.000000
2731.971924 6402.000000
2732.816650 6978.000000
2733.661377 7355.000000
2734.504883 6865.000000
2735.348633 7875.000000
2736.191650 7168.000000
2737.034180 6068.000000
2737.875732 6250.000000
2738.717773 6791.000000
2739.558838 6866.000000
2740.399658 5789.000000
2741.240234 5953.000000
2742.079590 7773.000000
2742.918945 6890.000000
2743.758301 6905.000000
2744.596436 6851.000000
2745.434082 7870.000000
2746.271729 6335.000000
2747.108887 7164.000000
2747.945801 6187.000000
2748.782227 6047.000000
2749.617432 6616.000000
2750.452881 6255.000000
2751.287842 6356.000000
2752.122070 6302.000000
2752.956055 6874.000000
2753.789551 6853.000000
2754.623047 8010.000000
2755.455566 6800.000000
2756.287598 7309.000000
2757.119141 6845.000000
2757.950684 7131.000000
2758.781250 7244.000000
2759.612061 7253.000000
2760.441650 7242.000000
2761.271240 6582.000000
2762.100586 7291.000000
2762.929199 6916.000000
2763.757324 6799.000000
2764.584961 6989.000000
2765.412598 6764.000000
2766.239746 7914.000000
2767.066162 5833.000000
2767.892090 7547.000000
2768.717529 6894.000000
2769.542725 7825.000000
2770.367920 7128.000000
2771.191895 6754.000000
2772.015869 6498.000000
2772.839844 7657.000000
2773.662598 6367.000000
2774.485596 6852.000000
2775.307373 6932.000000
2776.129150 6992.000000
2776.950928 6510.000000
2777.771729 8002.000000
2778.591797 6556.000000
2779.412109 6985.000000
2780.231934 7320.000000
2781.051758 6489.000000
2781.869629 5944.000000
2782.688721 8060.000000
2783.506592 6582.000000
2784.324219 6852.000000
2785.141357 7134.000000
2785.958008 7233.000000
2786.774414 7205.000000
2787.590332 6276.000000
2788.406006 5929.000000
2789.220703 6392.000000
2790.035889 7086.000000
2790.850342 7178.000000
2791.664307 6609.000000
2792.478027 7475.000000
2793.290527 8772.000000
2794.103271 7005.000000
2794.915527 7508.000000
2795.727295 7231.000000
2796.538330 7466.000000
2797.350098 6625.000000
2798.160645 7226.000000
2798.971191 7041.000000
2799.780273 7403.000000
2800.590088 8197.000000
2801.399170 7791.000000
2802.208008 6672.000000
2803.016357 7206.000000
2803.823730 6178.000000
2804.631592 6463.000000
2805.438721 6955.000000
2806.245605 6856.000000
2807.051270 7077.000000
2807.857422 6664.000000
2808.662842 6514.000000
2809.468262 7358.000000
2810.272949 6185.000000
2811.076660 7643.000000
2811.880859 7512.000000
2812.684570 6417.000000
2813.488037 6124.000000
2814.290039 6330.000000
2815.092773 7362.000000
2815.894775 7736.000000
2816.696533 6151.000000
2817.497803 6608.000000
2818.298584 7329.000000
2819.098877 6537.000000
2819.899414 6672.000000
2820.698975 8015.000000
2821.498047 7133.000000
2822.297119 6491.000000
2823.095947 6918.000000
2823.894287 6360.000000
2824.691650 7031.000000
2825.489258 7430.000000
2826.286133 6659.000000
2827.083252 7397.000000
2827.879639 7981.000000
2828.675293 7018.000000
2829.470947 7356.000000
2830.266357 7619.000000
2831.061279 7426.000000
2831.855469 6655.000000
2832.649658 6865.000000
2833.443604 5677.000000
2834.237061 6826.000000
2835.029785 7136.000000
2835.822266 8226.000000
2836.614746 7670.000000
2837.406982 7735.000000
2838.198730 6428.000000
2838.989502 6816.000000
2839.780273 8852.000000
2840.571289 7508.000000
2841.361328 6222.000000
2842.150879 7724.000000
2842.940674 7149.000000
2843.729492 7337.000000
2844.518311 7800.000000
2845.307129 7704.000000
2846.094971 7589.000000
2846.882324 7218.000000
2847.669922 7490.000000
2848.457031 7372.000000
2849.243408 6681.000000
2850.029785 7486.000000
2850.815918 7241.000000
2851.601563 7533.000000
2852.386230 7216.000000
2853.171387 6987.000000
2853.956299 7452.000000
2854.740479 7151.000000
2855.524658 6962.000000
2856.307617 8325.000000
2857.090820 6855.000000
2857.873779 6757.000000
2858.656250 7750.000000
2859.438477 6272.000000
2860.220215 6734.000000
2861.001709 7639.000000
2861.783447 7511.000000
2862.564453 7672.000000
2863.344727 6621.000000
2864.124756 6764.000000
2864.904785 8195.000000
2865.684570 7467.000000
2866.463379 8133.000000
2867.242432 7754.000000
2868.020996 6800.000000
2868.799316 7011.000000
2869.577148 7231.000000
2870.354736 6978.000000
2871.132080 7541.000000
2871.909180 6988.000000
2872.685791 6454.000000
2873.461914 7494.000000
2874.238037 7188.000000
2875.013672 8223.000000
2875.789063 7152.000000
2876.563965 6624.000000
2877.338623 7989.000000
2878.113281 6657.000000
2878.887695 7871.000000
2879.661377 6788.000000
2880.434326 7177.000000
2881.208008 6707.000000
2881.980713 7671.000000
2882.753418 7931.000000
2883.525391 8272.000000
2884.297119 6243.000000
2885.069336 6827.000000
2885.840332 6862.000000
2886.610840 6154.000000
2887.381836 8312.000000
2888.152832 7422.000000
2888.923096 8062.000000
2889.692383 7661.000000
2890.461914 6936.000000
2891.231445 7229.000000
2892.000488 7424.000000
2892.769043 7957.000000
2893.537598 7650.000000
2894.305176 6960.000000
2895.073242 6610.000000
2895.840820 7469.000000
2896.608398 8350.000000
2897.374756 7380.000000
2898.142090 6521.000000
2898.908203 7225.000000
2899.674561 7054.000000
2900.439453 8309.000000
2901.204834 7009.000000
2901.970703 6486.000000
2902.735107 7662.000000
2903.499512 7761.000000
2904.264160 8422.000000
2905.027832 6659.000000
2905.792236 8460.000000
2906.555908 6685.000000
2907.318848 8450.000000
2908.081543 6549.000000
2908.844727 8915.000000
2909.607422 7053.000000
2910.368896 6863.000000
2911.130859 6863.000000
